2D Measure spectrum data V5.74

<< MEASURE 1 >>
Data count = 2048
Exposure time = 30000 msec
Average = 10
Inspected time = 2020/10/19 16:54

Wave-dcm-1,Dark spec.  ,Spectrum
    108.17,  2241.20000,  1857.60000
    108.66,  2246.10000,  1846.40000
    109.15,  2258.40000,  1831.40000
    109.65,  2285.60000,  1796.00000
    110.14,  2292.80000,  1775.90000
    110.63,  2298.60000,  1736.40000
    111.13,  2313.10000,  1715.00000
    111.62,  2298.60000,  1693.80000
    112.11,  2316.10000,  1674.40000
    112.60,  2338.90000,  1657.20000
    113.10,  2328.40000,  1650.90000
    113.59,  2350.10000,  1640.80000
    114.08,  2363.60000,  1661.90000
    114.58,  2350.30000,  1662.90000
    115.07,  2397.80000,  1656.00000
    115.56,  2409.80000,  1648.10000
    116.06,  2401.80000,  1633.80000
    116.55,  2403.70000,  1635.40000
    117.04,  2390.80000,  1651.10000
    117.53,  2372.90000,  1657.90000
    118.03,  2413.10000,  1666.00000
    118.52,  2418.50000,  1673.70000
    119.01,  2412.10000,  1673.10000
    119.51,  2497.90000,  1695.30000
    120.00,  2582.60000,  1723.20000
    120.49,  2620.70000,  1750.40000
    120.98,  2620.50000,  1793.00000
    121.48,  2540.90000,  1830.50000
    121.97,  2441.20000,  1866.70000
    122.46,  2432.60000,  1915.40000
    122.95,  2456.10000,  1975.40000
    123.45,  2492.90000,  2021.30000
    123.94,  2496.40000,  2077.80000
    124.43,  2516.30000,  2120.70000
    124.92,  2544.60000,  2158.30000
    125.42,  2540.10000,  2187.20000
    125.91,  2549.10000,  2232.40000
    126.40,  2542.80000,  2254.60000
    126.89,  2512.90000,  2300.10000
    127.39,  2508.10000,  2334.30000
    127.88,  2507.50000,  2355.00000
    128.37,  2507.40000,  2386.20000
    128.86,  2530.90000,  2424.00000
    129.35,  2530.20000,  2453.30000
    129.85,  2539.10000,  2509.90000
    130.34,  2529.60000,  2548.60000
    130.83,  2528.30000,  2577.20000
    131.32,  2529.10000,  2600.90000
    131.81,  2535.00000,  2609.60000
    132.31,  2535.40000,  2610.30000
    132.80,  2540.70000,  2625.30000
    133.29,  2525.80000,  2622.70000
    133.78,  2533.50000,  2635.30000
    134.27,  2548.50000,  2640.00000
    134.77,  2559.80000,  2654.60000
    135.26,  2583.30000,  2684.90000
    135.75,  2580.20000,  2719.80000
    136.24,  2594.50000,  2743.50000
    136.73,  2576.10000,  2762.70000
    137.23,  2586.20000,  2797.10000
    137.72,  2571.30000,  2835.30000
    138.21,  2566.20000,  2861.40000
    138.70,  2557.30000,  2858.80000
    139.19,  2595.60000,  2855.80000
    139.68,  2586.80000,  2852.80000
    140.18,  2593.40000,  2869.40000
    140.67,  2607.40000,  2891.40000
    141.16,  2613.20000,  2910.00000
    141.65,  2603.70000,  2926.30000
    142.14,  2601.60000,  2953.60000
    142.63,  2619.20000,  2981.40000
    143.13,  2617.30000,  3003.30000
    143.62,  2658.50000,  3033.50000
    144.11,  2659.00000,  3065.70000
    144.60,  2620.90000,  3084.90000
    145.09,  2599.50000,  3097.50000
    145.58,  2651.80000,  3106.80000
    146.07,  2672.80000,  3115.20000
    146.56,  2689.40000,  3152.20000
    147.06,  2677.90000,  3192.30000
    147.55,  2645.20000,  3234.60000
    148.04,  2604.00000,  3272.80000
    148.53,  2635.80000,  3304.10000
    149.02,  2617.20000,  3311.30000
    149.51,  2695.00000,  3327.40000
    150.00,  2748.90000,  3333.10000
    150.49,  2761.70000,  3362.90000
    150.99,  2762.10000,  3396.70000
    151.48,  2735.70000,  3435.50000
    151.97,  2654.60000,  3468.20000
    152.46,  2669.20000,  3499.40000
    152.95,  2648.00000,  3508.60000
    153.44,  2640.40000,  3520.70000
    153.93,  2656.20000,  3532.20000
    154.42,  2674.00000,  3526.00000
    154.91,  2659.90000,  3513.00000
    155.40,  2653.60000,  3507.70000
    155.89,  2635.80000,  3493.40000
    156.39,  2656.60000,  3475.00000
    156.88,  2630.80000,  3473.40000
    157.37,  2635.70000,  3471.70000
    157.86,  2638.10000,  3473.90000
    158.35,  2645.60000,  3491.80000
    158.84,  2667.30000,  3508.10000
    159.33,  2717.00000,  3520.80000
    159.82,  2729.60000,  3531.90000
    160.31,  2740.20000,  3544.00000
    160.80,  2777.60000,  3511.10000
    161.29,  2730.70000,  3560.10000
    161.78,  2702.80000,  3559.10000
    162.27,  2666.00000,  3540.60000
    162.76,  2663.70000,  3495.70000
    163.25,  2665.20000,  3447.10000
    163.74,  2696.10000,  3366.30000
    164.23,  2695.30000,  3379.90000
    164.72,  2716.50000,  3378.30000
    165.21,  2692.70000,  3356.60000
    165.70,  2681.50000,  3345.30000
    166.20,  2713.20000,  3354.10000
    166.69,  2734.80000,  3343.70000
    167.18,  2753.10000,  3310.30000
    167.67,  2747.30000,  3297.00000
    168.16,  2727.70000,  3234.90000
    168.65,  2678.50000,  3189.70000
    169.14,  2708.20000,  3157.50000
    169.63,  2699.80000,  3145.50000
    170.12,  2693.40000,  3122.70000
    170.61,  2681.50000,  3106.60000
    171.10,  2743.10000,  3069.90000
    171.59,  2737.20000,  3043.50000
    172.08,  2752.50000,  3011.20000
    172.57,  2746.90000,  2994.50000
    173.06,  2740.80000,  2982.70000
    173.55,  2731.00000,  2967.10000
    174.04,  2716.40000,  2961.30000
    174.53,  2706.10000,  2954.70000
    175.02,  2698.50000,  2951.00000
    175.50,  2725.50000,  2940.60000
    175.99,  2755.80000,  2924.80000
    176.48,  2786.30000,  2901.90000
    176.97,  2763.60000,  2874.00000
    177.46,  2767.00000,  2845.10000
    177.95,  2733.50000,  2835.90000
    178.44,  2717.00000,  2834.50000
    178.93,  2701.10000,  2842.00000
    179.42,  2721.90000,  2850.00000
    179.91,  2740.70000,  2846.70000
    180.40,  2747.00000,  2847.20000
    180.89,  2752.00000,  2841.60000
    181.38,  2740.20000,  2843.60000
    181.87,  2733.00000,  2858.00000
    182.36,  2734.50000,  2864.70000
    182.85,  2714.10000,  2878.20000
    183.34,  2727.80000,  2884.80000
    183.83,  2738.20000,  2874.90000
    184.32,  2730.30000,  2856.80000
    184.81,  2768.00000,  2838.20000
    185.29,  2765.90000,  2802.20000
    185.78,  2737.70000,  2791.10000
    186.27,  2744.30000,  2787.90000
    186.76,  2734.70000,  2779.50000
    187.25,  2701.50000,  2775.50000
    187.74,  2772.00000,  2781.30000
    188.23,  2809.10000,  2775.70000
    188.72,  2832.60000,  2787.80000
    189.21,  2818.50000,  2808.40000
    189.70,  2786.20000,  2827.30000
    190.19,  2741.70000,  2866.50000
    190.67,  2728.60000,  2893.80000
    191.16,  2735.00000,  2893.80000
    191.65,  2743.60000,  2880.50000
    192.14,  2725.80000,  2883.60000
    192.63,  2754.30000,  2881.90000
    193.12,  2767.80000,  2898.70000
    193.61,  2749.70000,  2904.30000
    194.10,  2764.70000,  2901.10000
    194.59,  2757.20000,  2886.20000
    195.07,  2746.60000,  2883.10000
    195.56,  2767.70000,  2866.40000
    196.05,  2749.60000,  2851.30000
    196.54,  2736.60000,  2826.20000
    197.03,  2757.50000,  2810.80000
    197.52,  2796.20000,  2790.40000
    198.01,  2806.40000,  2770.40000
    198.49,  2807.90000,  2762.00000
    198.98,  2799.50000,  2751.60000
    199.47,  2758.10000,  2727.10000
    199.96,  2749.90000,  2706.10000
    200.45,  2761.60000,  2681.30000
    200.94,  2740.80000,  2658.50000
    201.43,  2748.20000,  2628.90000
    201.91,  2740.10000,  2620.20000
    202.40,  2735.20000,  2601.40000
    202.89,  2736.10000,  2589.60000
    203.38,  2751.00000,  2576.30000
    203.87,  2752.90000,  2565.20000
    204.36,  2749.70000,  2543.40000
    204.84,  2742.10000,  2552.00000
    205.33,  2764.50000,  2554.30000
    205.82,  2770.00000,  2568.30000
    206.31,  2767.40000,  2578.70000
    206.80,  2759.20000,  2594.60000
    207.28,  2766.40000,  2590.10000
    207.77,  2776.50000,  2590.00000
    208.26,  2795.50000,  2577.40000
    208.75,  2795.70000,  2575.40000
    209.24,  2777.10000,  2577.60000
    209.72,  2780.80000,  2596.30000
    210.21,  2795.50000,  2596.80000
    210.70,  2778.00000,  2583.50000
    211.19,  2795.60000,  2580.50000
    211.68,  2799.70000,  2579.20000
    212.16,  2803.60000,  2576.10000
    212.65,  2812.70000,  2588.30000
    213.14,  2800.10000,  2594.00000
    213.63,  2793.80000,  2580.30000
    214.12,  2772.40000,  2595.20000
    214.60,  2780.50000,  2613.50000
    215.09,  2794.10000,  2623.40000
    215.58,  2788.00000,  2634.80000
    216.07,  2778.30000,  2652.00000
    216.55,  2783.80000,  2670.50000
    217.04,  2723.80000,  2680.40000
    217.53,  2720.10000,  2699.40000
    218.02,  2722.00000,  2704.10000
    218.50,  2727.80000,  2707.70000
    218.99,  2748.10000,  2717.10000
    219.48,  2778.40000,  2732.40000
    219.97,  2748.20000,  2737.60000
    220.45,  2757.20000,  2748.20000
    220.94,  2758.10000,  2759.50000
    221.43,  2772.60000,  2776.80000
    221.92,  2801.90000,  2778.30000
    222.40,  2804.40000,  2785.60000
    222.89,  2784.60000,  2791.40000
    223.38,  2798.20000,  2797.70000
    223.86,  2814.50000,  2796.40000
    224.35,  2834.70000,  2792.00000
    224.84,  2842.40000,  2773.70000
    225.33,  2829.90000,  2757.30000
    225.81,  2798.30000,  2732.60000
    226.30,  2781.70000,  2726.20000
    226.79,  2785.70000,  2714.90000
    227.27,  2774.90000,  2703.10000
    227.76,  2773.20000,  2687.20000
    228.25,  2803.00000,  2648.90000
    228.74,  2814.60000,  2599.10000
    229.22,  2837.10000,  2556.90000
    229.71,  2835.10000,  2520.20000
    230.20,  2810.70000,  2487.00000
    230.68,  2797.40000,  2469.80000
    231.17,  2786.60000,  2434.70000
    231.66,  2753.80000,  2415.00000
    232.14,  2748.40000,  2388.00000
    232.63,  2734.90000,  2366.10000
    233.12,  2757.50000,  2335.90000
    233.60,  2782.40000,  2319.80000
    234.09,  2767.10000,  2293.10000
    234.58,  2750.40000,  2285.60000
    235.06,  2748.20000,  2269.90000
    235.55,  2746.80000,  2236.20000
    236.04,  2742.90000,  2199.90000
    236.52,  2760.00000,  2172.00000
    237.01,  2743.60000,  2151.40000
    237.50,  2775.20000,  2147.50000
    237.98,  2766.80000,  2144.20000
    238.47,  2828.30000,  2118.10000
    238.96,  2838.00000,  2095.90000
    239.44,  2836.10000,  2068.50000
    239.93,  2835.50000,  2049.60000
    240.41,  2791.70000,  2046.30000
    240.90,  2715.10000,  2064.00000
    241.39,  2733.50000,  2067.00000
    241.87,  2773.30000,  2071.00000
    242.36,  2794.60000,  2058.30000
    242.85,  2840.10000,  2042.70000
    243.33,  2831.60000,  2020.80000
    243.82,  2799.30000,  2013.10000
    244.30,  2772.00000,  1994.60000
    244.79,  2778.80000,  1993.80000
    245.28,  2769.30000,  1990.40000
    245.76,  2771.80000,  1990.70000
    246.25,  2759.00000,  1983.30000
    246.74,  2774.50000,  1971.30000
    247.22,  2799.20000,  1953.60000
    247.71,  2794.50000,  1948.80000
    248.19,  2790.60000,  1934.30000
    248.68,  2790.90000,  1934.60000
    249.16,  2752.00000,  1941.70000
    249.65,  2783.90000,  1951.60000
    250.14,  2801.40000,  1952.60000
    250.62,  2779.50000,  1957.60000
    251.11,  2756.70000,  1944.80000
    251.59,  2736.30000,  1942.30000
    252.08,  2715.30000,  1943.70000
    252.57,  2732.20000,  1945.00000
    253.05,  2737.00000,  1939.10000
    253.54,  2778.10000,  1928.40000
    254.02,  2810.20000,  1912.60000
    254.51,  2817.10000,  1909.10000
    254.99,  2813.60000,  1912.80000
    255.48,  2787.30000,  1917.90000
    255.96,  2756.00000,  1918.30000
    256.45,  2782.50000,  1910.40000
    256.94,  2787.20000,  1906.90000
    257.42,  2778.70000,  1904.40000
    257.91,  2780.20000,  1913.40000
    258.39,  2781.90000,  1917.80000
    258.88,  2764.40000,  1923.60000
    259.36,  2784.60000,  1920.00000
    259.85,  2780.10000,  1911.80000
    260.33,  2795.10000,  1902.60000
    260.82,  2822.40000,  1885.70000
    261.30,  2840.20000,  1876.20000
    261.79,  2814.20000,  1881.90000
    262.27,  2798.40000,  1877.00000
    262.76,  2779.40000,  1872.90000
    263.24,  2774.10000,  1885.50000
    263.73,  2800.50000,  1884.50000
    264.22,  2791.00000,  1904.60000
    264.70,  2847.50000,  1923.20000
    265.19,  2872.00000,  1927.20000
    265.67,  2875.70000,  1920.10000
    266.16,  2853.00000,  1912.70000
    266.64,  2827.40000,  1907.00000
    267.13,  2758.60000,  1914.20000
    267.61,  2761.80000,  1924.20000
    268.10,  2780.40000,  1935.10000
    268.58,  2786.50000,  1943.20000
    269.06,  2787.30000,  1950.20000
    269.55,  2800.70000,  1957.70000
    270.03,  2810.30000,  1959.40000
    270.52,  2804.90000,  1960.90000
    271.00,  2822.70000,  1959.70000
    271.49,  2823.00000,  1958.10000
    271.97,  2820.30000,  1966.00000
    272.46,  2821.90000,  1978.70000
    272.94,  2818.00000,  1986.70000
    273.43,  2801.30000,  2004.10000
    273.91,  2776.10000,  2010.50000
    274.40,  2770.30000,  2000.10000
    274.88,  2771.00000,  1996.30000
    275.37,  2772.50000,  2007.20000
    275.85,  2773.00000,  2017.50000
    276.33,  2773.60000,  2036.30000
    276.82,  2781.60000,  2043.30000
    277.30,  2792.00000,  2033.60000
    277.79,  2792.40000,  2025.10000
    278.27,  2803.50000,  2027.60000
    278.76,  2820.60000,  2034.00000
    279.24,  2822.00000,  2041.70000
    279.73,  2814.40000,  2046.60000
    280.21,  2795.50000,  2049.10000
    280.69,  2778.60000,  2036.80000
    281.18,  2786.30000,  2035.00000
    281.66,  2806.00000,  2044.00000
    282.15,  2835.40000,  2059.70000
    282.63,  2825.20000,  2059.80000
    283.11,  2812.20000,  2059.30000
    283.60,  2818.40000,  2040.50000
    284.08,  2830.20000,  2023.30000
    284.57,  2805.90000,  2016.60000
    285.05,  2801.60000,  2020.10000
    285.53,  2783.60000,  2009.90000
    286.02,  2756.70000,  2017.40000
    286.50,  2781.80000,  2011.40000
    286.99,  2806.10000,  1997.80000
    287.47,  2788.40000,  2002.70000
    287.95,  2779.50000,  2002.80000
    288.44,  2773.10000,  1996.10000
    288.92,  2764.40000,  1990.90000
    289.41,  2782.00000,  1972.90000
    289.89,  2814.60000,  1947.90000
    290.37,  2812.80000,  1943.60000
    290.86,  2837.10000,  1937.50000
    291.34,  2809.80000,  1916.90000
    291.82,  2792.00000,  1905.30000
    292.31,  2771.10000,  1891.90000
    292.79,  2780.50000,  1884.00000
    293.28,  2771.80000,  1881.50000
    293.76,  2779.80000,  1878.40000
    294.24,  2781.30000,  1858.60000
    294.73,  2799.00000,  1845.30000
    295.21,  2814.50000,  1821.50000
    295.69,  2829.70000,  1805.90000
    296.18,  2808.60000,  1788.90000
    296.66,  2769.60000,  1767.90000
    297.14,  2765.10000,  1755.60000
    297.63,  2771.90000,  1745.80000
    298.11,  2786.80000,  1744.80000
    298.59,  2818.80000,  1742.90000
    299.08,  2821.20000,  1742.80000
    299.56,  2821.70000,  1727.90000
    300.04,  2844.90000,  1710.60000
    300.53,  2851.50000,  1689.90000
    301.01,  2847.30000,  1680.20000
    301.49,  2833.10000,  1678.50000
    301.98,  2797.00000,  1672.00000
    302.46,  2776.60000,  1657.10000
    302.94,  2775.90000,  1647.20000
    303.42,  2778.30000,  1632.90000
    303.91,  2763.20000,  1617.90000
    304.39,  2747.50000,  1610.80000
    304.87,  2761.00000,  1581.20000
    305.36,  2787.30000,  1567.30000
    305.84,  2813.70000,  1568.00000
    306.32,  2843.50000,  1580.00000
    306.81,  2825.00000,  1569.90000
    307.29,  2794.80000,  1563.20000
    307.77,  2786.80000,  1548.70000
    308.25,  2785.00000,  1544.40000
    308.74,  2797.20000,  1545.80000
    309.22,  2797.30000,  1534.60000
    309.70,  2793.90000,  1504.60000
    310.18,  2781.00000,  1487.00000
    310.67,  2792.10000,  1479.50000
    311.15,  2804.90000,  1482.00000
    311.63,  2810.20000,  1495.50000
    312.12,  2813.10000,  1491.80000
    312.60,  2784.90000,  1500.50000
    313.08,  2764.50000,  1487.80000
    313.56,  2758.10000,  1481.80000
    314.05,  2754.00000,  1476.10000
    314.53,  2771.60000,  1463.10000
    315.01,  2831.90000,  1453.70000
    315.49,  2831.60000,  1450.40000
    315.98,  2838.90000,  1439.40000
    316.46,  2810.60000,  1443.40000
    316.94,  2766.90000,  1438.20000
    317.42,  2751.50000,  1425.30000
    317.90,  2762.50000,  1411.80000
    318.39,  2747.20000,  1395.40000
    318.87,  2798.90000,  1389.50000
    319.35,  2822.70000,  1394.40000
    319.83,  2832.30000,  1397.30000
    320.32,  2845.50000,  1398.70000
    320.80,  2851.30000,  1402.60000
    321.28,  2804.80000,  1395.60000
    321.76,  2837.80000,  1394.90000
    322.24,  2833.80000,  1388.50000
    322.73,  2842.30000,  1387.70000
    323.21,  2846.50000,  1387.90000
    323.69,  2848.50000,  1395.40000
    324.17,  2795.50000,  1401.00000
    324.65,  2770.50000,  1401.30000
    325.14,  2776.50000,  1388.70000
    325.62,  2787.20000,  1392.70000
    326.10,  2835.80000,  1388.00000
    326.58,  2852.90000,  1388.50000
    327.06,  2810.20000,  1394.70000
    327.55,  2822.40000,  1393.50000
    328.03,  2847.30000,  1388.40000
    328.51,  2852.60000,  1390.10000
    328.99,  2873.90000,  1380.00000
    329.47,  2869.90000,  1369.40000
    329.95,  2803.10000,  1361.40000
    330.44,  2804.80000,  1368.80000
    330.92,  2774.70000,  1358.80000
    331.40,  2747.50000,  1364.20000
    331.88,  2741.60000,  1360.50000
    332.36,  2758.60000,  1356.70000
    332.84,  2789.30000,  1353.50000
    333.33,  2832.00000,  1358.50000
    333.81,  2839.20000,  1348.60000
    334.29,  2838.90000,  1342.30000
    334.77,  2836.10000,  1328.20000
    335.25,  2820.80000,  1327.20000
    335.73,  2839.00000,  1329.30000
    336.21,  2838.20000,  1327.20000
    336.69,  2821.40000,  1331.10000
    337.18,  2807.60000,  1333.70000
    337.66,  2778.60000,  1329.60000
    338.14,  2758.60000,  1326.40000
    338.62,  2754.50000,  1317.40000
    339.10,  2782.70000,  1315.00000
    339.58,  2825.70000,  1310.20000
    340.06,  2836.10000,  1322.90000
    340.54,  2840.60000,  1316.00000
    341.03,  2827.90000,  1312.30000
    341.51,  2797.70000,  1304.50000
    341.99,  2797.70000,  1301.70000
    342.47,  2806.80000,  1287.60000
    342.95,  2797.70000,  1293.50000
    343.43,  2806.50000,  1286.40000
    343.91,  2808.60000,  1292.10000
    344.39,  2791.00000,  1286.70000
    344.87,  2772.80000,  1280.90000
    345.35,  2777.60000,  1280.80000
    345.84,  2779.80000,  1290.40000
    346.32,  2829.20000,  1286.60000
    346.80,  2853.50000,  1282.10000
    347.28,  2850.10000,  1274.30000
    347.76,  2817.40000,  1277.60000
    348.24,  2810.50000,  1275.90000
    348.72,  2834.10000,  1270.40000
    349.20,  2865.40000,  1265.00000
    349.68,  2856.50000,  1260.40000
    350.16,  2820.10000,  1266.90000
    350.64,  2770.40000,  1279.50000
    351.12,  2756.30000,  1267.10000
    351.60,  2811.30000,  1264.20000
    352.08,  2855.40000,  1263.90000
    352.56,  2873.60000,  1265.60000
    353.04,  2866.40000,  1272.20000
    353.53,  2842.60000,  1275.80000
    354.01,  2822.40000,  1263.00000
    354.49,  2836.00000,  1262.50000
    354.97,  2835.00000,  1256.10000
    355.45,  2833.90000,  1254.70000
    355.93,  2813.80000,  1261.50000
    356.41,  2822.00000,  1272.20000
    356.89,  2811.10000,  1269.50000
    357.37,  2823.30000,  1264.70000
    357.85,  2799.80000,  1267.90000
    358.33,  2792.30000,  1268.70000
    358.81,  2766.30000,  1276.00000
    359.29,  2773.30000,  1279.70000
    359.77,  2794.20000,  1275.00000
    360.25,  2816.80000,  1262.80000
    360.73,  2818.00000,  1256.40000
    361.21,  2810.70000,  1255.60000
    361.69,  2818.60000,  1259.30000
    362.17,  2819.80000,  1261.50000
    362.65,  2832.90000,  1272.30000
    363.13,  2834.00000,  1273.30000
    363.61,  2839.10000,  1268.50000
    364.09,  2806.30000,  1265.50000
    364.57,  2803.40000,  1261.90000
    365.05,  2800.60000,  1264.50000
    365.53,  2789.10000,  1263.20000
    366.01,  2801.50000,  1277.30000
    366.49,  2838.50000,  1280.60000
    366.97,  2804.40000,  1277.60000
    367.45,  2816.80000,  1286.80000
    367.93,  2843.20000,  1290.80000
    368.41,  2837.70000,  1285.40000
    368.89,  2838.40000,  1285.50000
    369.37,  2846.10000,  1278.10000
    369.85,  2793.20000,  1273.30000
    370.33,  2810.70000,  1276.20000
    370.80,  2830.40000,  1279.20000
    371.28,  2829.80000,  1288.60000
    371.76,  2798.90000,  1299.10000
    372.24,  2776.30000,  1305.90000
    372.72,  2770.50000,  1304.80000
    373.20,  2796.60000,  1293.30000
    373.68,  2833.20000,  1281.80000
    374.16,  2859.70000,  1279.20000
    374.64,  2832.10000,  1292.60000
    375.12,  2808.80000,  1288.00000
    375.60,  2837.50000,  1287.60000
    376.08,  2817.30000,  1274.80000
    376.56,  2811.90000,  1277.00000
    377.04,  2809.40000,  1278.40000
    377.52,  2803.90000,  1299.00000
    377.99,  2797.90000,  1304.20000
    378.47,  2820.70000,  1317.40000
    378.95,  2801.50000,  1315.30000
    379.43,  2816.20000,  1321.80000
    379.91,  2827.80000,  1307.70000
    380.39,  2873.10000,  1302.90000
    380.87,  2898.90000,  1300.30000
    381.35,  2885.90000,  1303.60000
    381.83,  2854.30000,  1302.90000
    382.31,  2819.00000,  1309.40000
    382.79,  2776.30000,  1315.60000
    383.26,  2791.70000,  1312.70000
    383.74,  2796.90000,  1317.10000
    384.22,  2793.30000,  1319.40000
    384.70,  2800.90000,  1319.60000
    385.18,  2778.60000,  1323.90000
    385.66,  2785.90000,  1316.40000
    386.14,  2801.30000,  1310.90000
    386.62,  2817.40000,  1308.60000
    387.09,  2837.30000,  1308.20000
    387.57,  2849.20000,  1309.70000
    388.05,  2836.30000,  1309.10000
    388.53,  2834.40000,  1296.80000
    389.01,  2832.00000,  1311.60000
    389.49,  2848.60000,  1324.70000
    389.97,  2849.40000,  1333.10000
    390.44,  2836.50000,  1338.20000
    390.92,  2813.20000,  1335.60000
    391.40,  2799.00000,  1324.40000
    391.88,  2790.60000,  1330.90000
    392.36,  2801.10000,  1321.60000
    392.84,  2806.00000,  1315.60000
    393.32,  2812.50000,  1322.10000
    393.79,  2808.00000,  1312.50000
    394.27,  2865.10000,  1313.80000
    394.75,  2863.10000,  1317.50000
    395.23,  2863.20000,  1315.90000
    395.71,  2842.40000,  1319.00000
    396.18,  2832.70000,  1329.00000
    396.66,  2834.80000,  1327.30000
    397.14,  2866.70000,  1337.90000
    397.62,  2833.10000,  1338.10000
    398.10,  2830.30000,  1339.10000
    398.58,  2809.50000,  1340.10000
    399.05,  2825.20000,  1327.80000
    399.53,  2841.90000,  1316.10000
    400.01,  2846.10000,  1303.60000
    400.49,  2820.70000,  1297.80000
    400.97,  2801.80000,  1293.00000
    401.44,  2759.00000,  1309.10000
    401.92,  2782.20000,  1308.70000
    402.40,  2783.80000,  1317.40000
    402.88,  2811.40000,  1314.70000
    403.36,  2825.10000,  1307.30000
    403.83,  2842.20000,  1302.30000
    404.31,  2808.10000,  1301.60000
    404.79,  2822.20000,  1288.80000
    405.27,  2803.90000,  1271.90000
    405.74,  2798.70000,  1260.70000
    406.22,  2821.20000,  1253.50000
    406.70,  2846.70000,  1255.10000
    407.18,  2828.10000,  1260.90000
    407.65,  2816.40000,  1259.30000
    408.13,  2783.50000,  1248.70000
    408.61,  2783.20000,  1264.00000
    409.09,  2794.90000,  1270.40000
    409.56,  2805.70000,  1267.40000
    410.04,  2818.60000,  1261.30000
    410.52,  2816.90000,  1246.90000
    411.00,  2789.60000,  1246.10000
    411.47,  2787.10000,  1246.10000
    411.95,  2774.00000,  1245.80000
    412.43,  2779.40000,  1235.10000
    412.91,  2786.90000,  1223.50000
    413.38,  2802.50000,  1215.10000
    413.86,  2804.60000,  1220.00000
    414.34,  2805.80000,  1218.10000
    414.82,  2814.30000,  1213.60000
    415.29,  2818.50000,  1204.30000
    415.77,  2836.60000,  1195.20000
    416.25,  2833.10000,  1191.80000
    416.72,  2819.50000,  1203.10000
    417.20,  2799.40000,  1215.90000
    417.68,  2771.40000,  1207.90000
    418.16,  2768.40000,  1207.80000
    418.63,  2803.20000,  1191.90000
    419.11,  2800.60000,  1187.40000
    419.59,  2804.10000,  1189.60000
    420.06,  2770.50000,  1198.90000
    420.54,  2741.30000,  1197.90000
    421.02,  2766.00000,  1197.60000
    421.50,  2796.50000,  1185.20000
    421.97,  2806.20000,  1182.50000
    422.45,  2804.00000,  1170.90000
    422.93,  2792.10000,  1174.00000
    423.40,  2778.50000,  1172.00000
    423.88,  2779.90000,  1175.20000
    424.36,  2784.20000,  1169.10000
    424.83,  2793.60000,  1169.10000
    425.31,  2812.80000,  1161.90000
    425.79,  2864.30000,  1151.40000
    426.26,  2901.60000,  1156.30000
    426.74,  2877.40000,  1158.60000
    427.22,  2855.90000,  1159.00000
    427.69,  2833.80000,  1167.40000
    428.17,  2814.00000,  1169.40000
    428.65,  2798.50000,  1157.70000
    429.12,  2837.40000,  1152.50000
    429.60,  2818.60000,  1147.70000
    430.08,  2825.10000,  1153.70000
    430.55,  2823.90000,  1171.90000
    431.03,  2826.90000,  1174.20000
    431.50,  2825.60000,  1170.50000
    431.98,  2832.10000,  1152.60000
    432.46,  2835.10000,  1149.70000
    432.93,  2815.30000,  1150.20000
    433.41,  2787.10000,  1152.00000
    433.89,  2781.30000,  1151.90000
    434.36,  2785.30000,  1160.80000
    434.84,  2776.20000,  1164.00000
    435.31,  2800.10000,  1161.60000
    435.79,  2801.70000,  1158.90000
    436.27,  2798.60000,  1140.90000
    436.74,  2796.00000,  1139.90000
    437.22,  2801.80000,  1141.30000
    437.70,  2797.70000,  1150.70000
    438.17,  2790.50000,  1142.20000
    438.65,  2783.20000,  1138.20000
    439.12,  2794.70000,  1124.20000
    439.60,  2797.10000,  1123.60000
    440.08,  2818.70000,  1117.90000
    440.55,  2805.50000,  1131.80000
    441.03,  2807.70000,  1134.60000
    441.50,  2802.10000,  1126.80000
    441.98,  2819.20000,  1120.90000
    442.45,  2817.80000,  1116.10000
    442.93,  2816.40000,  1121.00000
    443.41,  2793.90000,  1127.00000
    443.88,  2784.60000,  1145.20000
    444.36,  2782.00000,  1137.00000
    444.83,  2789.70000,  1133.50000
    445.31,  2798.70000,  1129.90000
    445.78,  2775.90000,  1133.30000
    446.26,  2771.60000,  1130.20000
    446.74,  2759.90000,  1136.80000
    447.21,  2785.70000,  1123.20000
    447.69,  2811.80000,  1118.40000
    448.16,  2830.90000,  1126.10000
    448.64,  2810.80000,  1121.40000
    449.11,  2792.50000,  1129.30000
    449.59,  2794.40000,  1128.30000
    450.06,  2798.60000,  1130.60000
    450.54,  2800.90000,  1134.80000
    451.02,  2822.60000,  1137.30000
    451.49,  2830.80000,  1129.40000
    451.97,  2826.80000,  1130.70000
    452.44,  2823.50000,  1126.40000
    452.92,  2809.70000,  1124.20000
    453.39,  2793.50000,  1117.20000
    453.87,  2806.80000,  1108.00000
    454.34,  2806.50000,  1111.70000
    454.82,  2817.30000,  1108.30000
    455.29,  2821.60000,  1124.70000
    455.77,  2826.90000,  1125.30000
    456.24,  2802.10000,  1127.00000
    456.72,  2784.10000,  1126.60000
    457.19,  2771.70000,  1129.00000
    457.67,  2792.90000,  1120.20000
    458.14,  2822.50000,  1125.00000
    458.62,  2829.80000,  1131.20000
    459.09,  2818.10000,  1128.10000
    459.57,  2794.80000,  1123.80000
    460.04,  2789.70000,  1126.90000
    460.52,  2790.80000,  1126.40000
    460.99,  2786.10000,  1117.50000
    461.47,  2779.70000,  1122.90000
    461.94,  2761.40000,  1107.40000
    462.42,  2755.80000,  1114.90000
    462.89,  2765.20000,  1133.80000
    463.37,  2783.70000,  1142.60000
    463.84,  2789.40000,  1141.00000
    464.32,  2804.10000,  1124.50000
    464.79,  2809.50000,  1110.40000
    465.26,  2816.00000,  1105.00000
    465.74,  2799.00000,  1117.60000
    466.21,  2821.90000,  1117.80000
    466.69,  2828.90000,  1115.40000
    467.16,  2831.70000,  1114.20000
    467.64,  2811.40000,  1127.50000
    468.11,  2794.10000,  1125.30000
    468.59,  2785.20000,  1133.00000
    469.06,  2802.20000,  1123.80000
    469.54,  2834.50000,  1113.20000
    470.01,  2835.20000,  1124.30000
    470.48,  2792.20000,  1125.00000
    470.96,  2800.80000,  1130.30000
    471.43,  2824.30000,  1122.60000
    471.91,  2842.80000,  1116.50000
    472.38,  2881.30000,  1119.00000
    472.86,  2858.40000,  1125.50000
    473.33,  2806.50000,  1115.40000
    473.80,  2790.30000,  1121.80000
    474.28,  2799.60000,  1111.30000
    474.75,  2811.50000,  1116.60000
    475.23,  2848.80000,  1121.00000
    475.70,  2847.70000,  1130.80000
    476.17,  2815.10000,  1139.30000
    476.65,  2806.70000,  1141.90000
    477.12,  2811.40000,  1138.20000
    477.60,  2778.60000,  1135.10000
    478.07,  2791.80000,  1120.30000
    478.54,  2808.30000,  1122.20000
    479.02,  2813.60000,  1133.80000
    479.49,  2842.20000,  1127.60000
    479.97,  2844.90000,  1126.40000
    480.44,  2826.70000,  1122.10000
    480.91,  2798.60000,  1118.20000
    481.39,  2787.60000,  1112.30000
    481.86,  2787.60000,  1124.40000
    482.34,  2774.10000,  1118.80000
    482.81,  2786.00000,  1120.60000
    483.28,  2809.90000,  1127.40000
    483.76,  2794.60000,  1139.00000
    484.23,  2812.70000,  1132.10000
    484.70,  2807.20000,  1123.50000
    485.18,  2803.70000,  1110.20000
    485.65,  2807.60000,  1103.20000
    486.12,  2809.50000,  1106.80000
    486.60,  2789.70000,  1117.90000
    487.07,  2786.50000,  1126.10000
    487.55,  2811.10000,  1121.90000
    488.02,  2830.60000,  1132.40000
    488.49,  2828.80000,  1135.00000
    488.97,  2847.10000,  1127.40000
    489.44,  2841.10000,  1126.50000
    489.91,  2802.20000,  1125.60000
    490.39,  2797.00000,  1120.70000
    490.86,  2756.30000,  1125.60000
    491.33,  2718.20000,  1131.20000
    491.81,  2761.40000,  1126.30000
    492.28,  2800.90000,  1125.30000
    492.75,  2801.70000,  1118.60000
    493.23,  2852.80000,  1110.60000
    493.70,  2875.50000,  1101.70000
    494.17,  2869.40000,  1103.00000
    494.64,  2861.20000,  1113.00000
    495.12,  2813.10000,  1117.30000
    495.59,  2806.00000,  1122.00000
    496.06,  2837.80000,  1112.90000
    496.54,  2852.20000,  1113.90000
    497.01,  2840.50000,  1103.70000
    497.48,  2823.80000,  1110.60000
    497.96,  2796.10000,  1113.10000
    498.43,  2831.80000,  1114.10000
    498.90,  2844.30000,  1102.40000
    499.37,  2863.80000,  1105.00000
    499.85,  2841.60000,  1098.00000
    500.32,  2836.40000,  1095.90000
    500.79,  2817.20000,  1096.10000
    501.27,  2825.80000,  1092.20000
    501.74,  2822.20000,  1085.20000
    502.21,  2818.40000,  1086.00000
    502.68,  2801.60000,  1097.90000
    503.16,  2788.90000,  1102.90000
    503.63,  2780.10000,  1114.60000
    504.10,  2790.20000,  1114.40000
    504.57,  2779.80000,  1110.60000
    505.05,  2794.90000,  1103.50000
    505.52,  2818.40000,  1099.50000
    505.99,  2818.00000,  1098.20000
    506.46,  2820.60000,  1098.60000
    506.94,  2799.00000,  1107.80000
    507.41,  2778.20000,  1109.10000
    507.88,  2783.40000,  1100.20000
    508.35,  2781.20000,  1092.50000
    508.83,  2772.50000,  1097.20000
    509.30,  2810.00000,  1090.00000
    509.77,  2808.30000,  1101.30000
    510.24,  2814.10000,  1098.20000
    510.72,  2803.40000,  1087.90000
    511.19,  2789.60000,  1085.30000
    511.66,  2791.80000,  1075.20000
    512.13,  2819.00000,  1069.20000
    512.60,  2802.20000,  1067.20000
    513.08,  2792.20000,  1069.70000
    513.55,  2780.20000,  1078.50000
    514.02,  2763.60000,  1088.80000
    514.49,  2764.30000,  1089.40000
    514.97,  2771.00000,  1097.20000
    515.44,  2789.90000,  1089.40000
    515.91,  2796.40000,  1075.50000
    516.38,  2798.50000,  1071.60000
    516.85,  2764.80000,  1075.60000
    517.33,  2743.50000,  1081.80000
    517.80,  2740.90000,  1085.10000
    518.27,  2764.70000,  1081.80000
    518.74,  2809.70000,  1077.00000
    519.21,  2832.60000,  1084.60000
    519.68,  2816.90000,  1076.20000
    520.16,  2792.70000,  1075.10000
    520.63,  2772.10000,  1073.10000
    521.10,  2756.80000,  1075.60000
    521.57,  2782.10000,  1084.70000
    522.04,  2796.30000,  1083.40000
    522.52,  2797.00000,  1068.90000
    522.99,  2781.10000,  1068.80000
    523.46,  2797.70000,  1066.50000
    523.93,  2804.40000,  1072.50000
    524.40,  2830.20000,  1081.40000
    524.87,  2829.80000,  1072.70000
    525.34,  2815.70000,  1068.80000
    525.82,  2799.50000,  1068.80000
    526.29,  2810.50000,  1069.30000
    526.76,  2806.20000,  1073.50000
    527.23,  2816.50000,  1085.70000
    527.70,  2800.20000,  1083.10000
    528.17,  2796.10000,  1073.40000
    528.64,  2784.90000,  1075.80000
    529.12,  2785.60000,  1085.20000
    529.59,  2784.90000,  1089.70000
    530.06,  2790.60000,  1097.20000
    530.53,  2831.50000,  1095.00000
    531.00,  2809.80000,  1086.80000
    531.47,  2758.60000,  1085.40000
    531.94,  2748.50000,  1084.80000
    532.41,  2748.50000,  1076.50000
    532.89,  2769.70000,  1074.70000
    533.36,  2838.10000,  1073.00000
    533.83,  2820.60000,  1084.10000
    534.30,  2798.90000,  1089.60000
    534.77,  2811.50000,  1095.70000
    535.24,  2815.70000,  1093.50000
    535.71,  2807.50000,  1095.70000
    536.18,  2822.90000,  1092.50000
    536.65,  2807.10000,  1104.30000
    537.13,  2784.50000,  1097.50000
    537.60,  2764.00000,  1099.00000
    538.07,  2771.70000,  1091.10000
    538.54,  2764.50000,  1083.50000
    539.01,  2790.00000,  1090.10000
    539.48,  2822.20000,  1107.90000
    539.95,  2835.80000,  1111.70000
    540.42,  2834.40000,  1114.90000
    540.89,  2817.70000,  1113.90000
    541.36,  2788.90000,  1112.00000
    541.83,  2777.80000,  1121.80000
    542.30,  2778.30000,  1124.60000
    542.77,  2787.60000,  1126.50000
    543.25,  2822.60000,  1114.80000
    543.72,  2827.50000,  1107.80000
    544.19,  2825.10000,  1111.60000
    544.66,  2800.30000,  1115.00000
    545.13,  2790.20000,  1114.20000
    545.60,  2773.50000,  1122.20000
    546.07,  2804.10000,  1120.50000
    546.54,  2812.50000,  1119.00000
    547.01,  2815.20000,  1132.60000
    547.48,  2810.50000,  1138.20000
    547.95,  2805.80000,  1139.90000
    548.42,  2784.70000,  1142.60000
    548.89,  2811.20000,  1144.60000
    549.36,  2799.80000,  1138.00000
    549.83,  2788.60000,  1137.10000
    550.30,  2841.00000,  1133.90000
    550.77,  2848.80000,  1133.80000
    551.24,  2845.00000,  1149.10000
    551.71,  2853.00000,  1167.80000
    552.18,  2818.80000,  1167.00000
    552.65,  2769.20000,  1155.70000
    553.12,  2798.80000,  1151.00000
    553.59,  2810.40000,  1143.00000
    554.06,  2812.50000,  1153.10000
    554.53,  2819.90000,  1165.10000
    555.00,  2802.70000,  1164.00000
    555.47,  2790.50000,  1165.70000
    555.94,  2781.20000,  1169.10000
    556.41,  2781.50000,  1170.50000
    556.88,  2767.20000,  1168.40000
    557.35,  2767.60000,  1164.60000
    557.82,  2758.70000,  1158.00000
    558.29,  2768.40000,  1169.40000
    558.76,  2807.90000,  1171.00000
    559.23,  2817.30000,  1184.00000
    559.70,  2823.20000,  1179.70000
    560.17,  2821.60000,  1171.00000
    560.64,  2818.00000,  1158.30000
    561.11,  2801.00000,  1163.10000
    561.58,  2830.30000,  1170.40000
    562.05,  2809.60000,  1179.30000
    562.52,  2818.90000,  1184.40000
    562.99,  2816.30000,  1181.80000
    563.46,  2821.50000,  1182.30000
    563.93,  2806.20000,  1176.60000
    564.40,  2809.60000,  1183.00000
    564.87,  2813.30000,  1168.00000
    565.34,  2832.70000,  1168.90000
    565.81,  2821.70000,  1167.90000
    566.28,  2816.50000,  1179.40000
    566.74,  2794.00000,  1182.60000
    567.21,  2779.00000,  1190.50000
    567.68,  2797.50000,  1180.90000
    568.15,  2791.00000,  1183.90000
    568.62,  2784.40000,  1179.80000
    569.09,  2780.50000,  1183.90000
    569.56,  2775.20000,  1188.40000
    570.03,  2775.70000,  1178.70000
    570.50,  2820.00000,  1170.90000
    570.97,  2815.80000,  1166.80000
    571.44,  2804.90000,  1174.20000
    571.91,  2803.20000,  1186.30000
    572.38,  2791.20000,  1196.50000
    572.84,  2774.10000,  1194.60000
    573.31,  2795.40000,  1184.30000
    573.78,  2795.10000,  1177.20000
    574.25,  2784.50000,  1185.00000
    574.72,  2805.50000,  1185.40000
    575.19,  2802.60000,  1180.20000
    575.66,  2796.10000,  1186.30000
    576.13,  2792.40000,  1189.30000
    576.60,  2799.60000,  1195.50000
    577.07,  2818.50000,  1198.30000
    577.53,  2844.60000,  1181.40000
    578.00,  2842.60000,  1171.40000
    578.47,  2833.20000,  1169.50000
    578.94,  2803.80000,  1175.20000
    579.41,  2772.80000,  1181.10000
    579.88,  2786.20000,  1189.90000
    580.35,  2792.00000,  1188.80000
    580.82,  2795.70000,  1196.20000
    581.28,  2816.00000,  1196.20000
    581.75,  2813.80000,  1195.60000
    582.22,  2805.10000,  1195.70000
    582.69,  2811.90000,  1201.60000
    583.16,  2812.20000,  1187.50000
    583.63,  2799.70000,  1178.60000
    584.10,  2827.00000,  1174.00000
    584.56,  2845.10000,  1169.90000
    585.03,  2844.40000,  1169.10000
    585.50,  2835.20000,  1168.10000
    585.97,  2803.40000,  1154.40000
    586.44,  2793.70000,  1158.80000
    586.91,  2801.90000,  1169.60000
    587.37,  2804.20000,  1171.00000
    587.84,  2794.80000,  1173.60000
    588.31,  2784.80000,  1171.20000
    588.78,  2758.70000,  1169.80000
    589.25,  2794.90000,  1176.60000
    589.72,  2782.20000,  1184.00000
    590.18,  2803.60000,  1191.00000
    590.65,  2827.10000,  1194.50000
    591.12,  2815.00000,  1184.80000
    591.59,  2818.20000,  1172.50000
    592.06,  2804.20000,  1171.20000
    592.52,  2766.20000,  1166.00000
    592.99,  2779.40000,  1178.50000
    593.46,  2779.20000,  1178.50000
    593.93,  2734.60000,  1172.60000
    594.40,  2767.20000,  1159.10000
    594.86,  2789.50000,  1154.80000
    595.33,  2811.70000,  1147.50000
    595.80,  2828.70000,  1159.90000
    596.27,  2833.00000,  1162.90000
    596.74,  2800.90000,  1175.80000
    597.20,  2792.90000,  1173.30000
    597.67,  2801.20000,  1174.30000
    598.14,  2780.50000,  1168.80000
    598.61,  2769.70000,  1168.80000
    599.07,  2779.10000,  1161.50000
    599.54,  2770.10000,  1161.60000
    600.01,  2758.70000,  1155.90000
    600.48,  2821.20000,  1157.70000
    600.95,  2849.40000,  1146.80000
    601.41,  2859.20000,  1139.80000
    601.88,  2843.00000,  1134.70000
    602.35,  2787.20000,  1134.60000
    602.82,  2735.20000,  1142.00000
    603.28,  2758.00000,  1155.00000
    603.75,  2757.50000,  1154.80000
    604.22,  2782.70000,  1151.40000
    604.69,  2794.80000,  1141.70000
    605.15,  2801.30000,  1143.70000
    605.62,  2795.10000,  1146.80000
    606.09,  2790.10000,  1155.30000
    606.56,  2767.10000,  1154.90000
    607.02,  2770.80000,  1148.30000
    607.49,  2769.30000,  1132.40000
    607.96,  2795.60000,  1128.30000
    608.42,  2798.70000,  1123.00000
    608.89,  2843.60000,  1127.70000
    609.36,  2852.40000,  1122.40000
    609.83,  2837.40000,  1120.20000
    610.29,  2804.80000,  1124.70000
    610.76,  2780.00000,  1127.80000
    611.23,  2774.30000,  1120.50000
    611.69,  2806.50000,  1116.20000
    612.16,  2803.50000,  1110.60000
    612.63,  2808.20000,  1099.40000
    613.10,  2789.00000,  1106.40000
    613.56,  2767.00000,  1118.50000
    614.03,  2774.40000,  1124.10000
    614.50,  2781.30000,  1129.10000
    614.96,  2788.00000,  1126.50000
    615.43,  2801.80000,  1115.80000
    615.90,  2817.10000,  1104.70000
    616.36,  2819.10000,  1096.40000
    616.83,  2800.90000,  1095.50000
    617.30,  2796.40000,  1093.30000
    617.76,  2773.60000,  1088.00000
    618.23,  2749.70000,  1101.60000
    618.70,  2743.40000,  1099.60000
    619.16,  2757.70000,  1087.90000
    619.63,  2758.80000,  1075.10000
    620.10,  2763.60000,  1065.10000
    620.56,  2766.50000,  1057.30000
    621.03,  2793.50000,  1062.20000
    621.50,  2801.70000,  1067.00000
    621.96,  2807.60000,  1075.30000
    622.43,  2803.70000,  1077.70000
    622.90,  2795.10000,  1086.00000
    623.36,  2800.60000,  1083.10000
    623.83,  2811.30000,  1072.50000
    624.30,  2801.90000,  1061.70000
    624.76,  2799.90000,  1053.30000
    625.23,  2806.10000,  1052.50000
    625.70,  2817.60000,  1052.40000
    626.16,  2821.20000,  1061.70000
    626.63,  2792.30000,  1069.40000
    627.09,  2779.00000,  1071.40000
    627.56,  2787.60000,  1072.20000
    628.03,  2784.00000,  1072.00000
    628.49,  2793.10000,  1066.30000
    628.96,  2781.80000,  1059.20000
    629.43,  2780.80000,  1059.20000
    629.89,  2781.00000,  1055.40000
    630.36,  2789.80000,  1058.60000
    630.82,  2779.60000,  1054.60000
    631.29,  2777.30000,  1055.70000
    631.76,  2764.90000,  1046.10000
    632.22,  2753.00000,  1056.50000
    632.69,  2754.00000,  1065.60000
    633.15,  2780.00000,  1060.20000
    633.62,  2807.20000,  1055.20000
    634.09,  2821.40000,  1044.10000
    634.55,  2825.70000,  1032.30000
    635.02,  2794.10000,  1033.60000
    635.48,  2783.30000,  1037.00000
    635.95,  2779.80000,  1032.10000
    636.42,  2782.60000,  1039.80000
    636.88,  2767.60000,  1029.80000
    637.35,  2757.60000,  1031.30000
    637.81,  2765.00000,  1032.10000
    638.28,  2780.30000,  1022.90000
    638.74,  2798.30000,  1026.80000
    639.21,  2810.80000,  1028.20000
    639.68,  2794.20000,  1014.80000
    640.14,  2767.60000,  1012.50000
    640.61,  2775.00000,  1019.00000
    641.07,  2754.00000,  1014.00000
    641.54,  2767.70000,  1022.10000
    642.00,  2782.30000,  1021.30000
    642.47,  2804.40000,  1016.40000
    642.93,  2809.40000,  1007.30000
    643.40,  2809.70000,  1012.50000
    643.87,  2789.90000,  1015.50000
    644.33,  2783.40000,  1023.50000
    644.80,  2780.50000,  1025.60000
    645.26,  2774.50000,  1018.80000
    645.73,  2768.00000,  1011.20000
    646.19,  2765.80000,  1007.40000
    646.66,  2776.40000,  1011.80000
    647.12,  2765.00000,  1011.10000
    647.59,  2771.10000,  1021.20000
    648.05,  2773.20000,  1025.10000
    648.52,  2763.90000,  1030.40000
    648.98,  2761.70000,  1024.40000
    649.45,  2759.00000,  1018.40000
    649.91,  2741.50000,  1009.10000
    650.38,  2749.30000,  1002.40000
    650.84,  2788.90000,  1009.60000
    651.31,  2787.70000,  1014.40000
    651.77,  2786.20000,  1017.20000
    652.24,  2763.20000,  1019.10000
    652.70,  2739.20000,  1026.90000
    653.17,  2729.60000,  1014.00000
    653.63,  2759.30000,  1010.80000
    654.10,  2760.80000,  1006.20000
    654.56,  2773.70000,  1019.50000
    655.03,  2770.70000,  1019.60000
    655.49,  2777.60000,  1022.00000
    655.96,  2774.20000,  1021.20000
    656.42,  2763.10000,  1017.90000
    656.89,  2747.40000,  1023.80000
    657.35,  2801.90000,  1020.50000
    657.82,  2841.40000,  1011.70000
    658.28,  2876.70000,  1000.90000
    658.75,  2888.40000,  1001.80000
    659.21,  2847.80000,   994.50000
    659.68,  2813.20000,   999.50000
    660.14,  2813.10000,   981.80000
    660.61,  2772.00000,   984.10000
    661.07,  2806.00000,   978.30000
    661.53,  2822.40000,   983.70000
    662.00,  2842.90000,   987.20000
    662.46,  2839.70000,   983.50000
    662.93,  2824.80000,   970.40000
    663.39,  2786.60000,   968.10000
    663.86,  2814.70000,   967.40000
    664.32,  2808.10000,   971.30000
    664.79,  2831.70000,   978.50000
    665.25,  2824.70000,   966.70000
    665.71,  2802.90000,   956.60000
    666.18,  2770.10000,   951.10000
    666.64,  2794.10000,   949.20000
    667.11,  2784.60000,   960.50000
    667.57,  2801.50000,   965.30000
    668.04,  2809.50000,   977.20000
    668.50,  2796.40000,   982.90000
    668.96,  2774.70000,   982.30000
    669.43,  2805.80000,   968.70000
    669.89,  2784.80000,   970.30000
    670.36,  2770.80000,   958.30000
    670.82,  2765.70000,   962.80000
    671.28,  2774.50000,   960.50000
    671.75,  2774.70000,   962.80000
    672.21,  2800.60000,   958.20000
    672.68,  2807.10000,   953.00000
    673.14,  2814.80000,   949.80000
    673.60,  2824.50000,   952.10000
    674.07,  2812.20000,   940.80000
    674.53,  2780.80000,   939.40000
    675.00,  2767.80000,   942.60000
    675.46,  2756.50000,   943.00000
    675.92,  2749.50000,   953.90000
    676.39,  2786.00000,   951.10000
    676.85,  2791.00000,   948.80000
    677.31,  2802.60000,   946.00000
    677.78,  2810.60000,   943.00000
    678.24,  2793.90000,   942.30000
    678.70,  2769.20000,   943.70000
    679.17,  2758.80000,   932.70000
    679.63,  2727.70000,   929.80000
    680.10,  2732.10000,   934.30000
    680.56,  2760.20000,   937.60000
    681.02,  2765.10000,   938.90000
    681.49,  2797.10000,   937.70000
    681.95,  2795.50000,   939.50000
    682.41,  2781.60000,   930.70000
    682.88,  2772.50000,   933.70000
    683.34,  2768.30000,   928.20000
    683.80,  2749.00000,   919.40000
    684.27,  2775.00000,   908.80000
    684.73,  2779.80000,   913.70000
    685.19,  2799.40000,   913.40000
    685.66,  2826.20000,   912.60000
    686.12,  2816.00000,   923.30000
    686.58,  2829.50000,   919.30000
    687.05,  2828.10000,   907.00000
    687.51,  2813.00000,   894.40000
    687.97,  2802.30000,   889.70000
    688.44,  2804.90000,   894.50000
    688.90,  2795.50000,   908.90000
    689.36,  2800.30000,   909.80000
    689.83,  2799.30000,   918.40000
    690.29,  2811.90000,   904.10000
    690.75,  2824.50000,   900.80000
    691.21,  2836.30000,   900.20000
    691.68,  2826.80000,   892.10000
    692.14,  2792.80000,   892.70000
    692.60,  2800.00000,   893.70000
    693.07,  2782.40000,   891.10000
    693.53,  2793.20000,   898.20000
    693.99,  2806.20000,   907.20000
    694.45,  2807.30000,   910.10000
    694.92,  2814.40000,   914.80000
    695.38,  2831.70000,   900.90000
    695.84,  2817.20000,   895.40000
    696.31,  2799.90000,   893.90000
    696.77,  2811.10000,   889.20000
    697.23,  2814.40000,   876.70000
    697.69,  2817.70000,   873.00000
    698.16,  2803.50000,   869.30000
    698.62,  2784.40000,   873.80000
    699.08,  2753.80000,   885.70000
    699.54,  2750.20000,   893.40000
    700.01,  2740.80000,   891.60000
    700.47,  2725.50000,   891.60000
    700.93,  2725.60000,   895.00000
    701.39,  2740.10000,   894.70000
    701.86,  2762.00000,   885.90000
    702.32,  2766.60000,   882.20000
    702.78,  2775.10000,   876.90000
    703.24,  2766.20000,   879.00000
    703.71,  2770.40000,   884.70000
    704.17,  2785.40000,   887.80000
    704.63,  2784.70000,   876.20000
    705.09,  2772.40000,   869.20000
    705.56,  2798.30000,   865.90000
    706.02,  2796.50000,   871.40000
    706.48,  2780.30000,   872.70000
    706.94,  2775.00000,   880.30000
    707.40,  2754.50000,   874.60000
    707.87,  2757.60000,   864.20000
    708.33,  2776.10000,   863.10000
    708.79,  2766.90000,   859.70000
    709.25,  2733.10000,   864.50000
    709.72,  2734.90000,   865.50000
    710.18,  2744.50000,   861.50000
    710.64,  2746.00000,   860.90000
    711.10,  2745.50000,   869.60000
    711.56,  2763.40000,   862.70000
    712.03,  2782.40000,   869.70000
    712.49,  2810.70000,   874.10000
    712.95,  2829.00000,   872.90000
    713.41,  2806.90000,   875.20000
    713.87,  2793.90000,   875.50000
    714.33,  2796.30000,   859.20000
    714.80,  2788.00000,   860.50000
    715.26,  2743.40000,   875.10000
    715.72,  2743.90000,   873.70000
    716.18,  2745.40000,   867.20000
    716.64,  2759.70000,   861.40000
    717.11,  2770.00000,   848.70000
    717.57,  2766.10000,   852.60000
    718.03,  2725.60000,   858.70000
    718.49,  2737.80000,   859.50000
    718.95,  2787.90000,   851.10000
    719.41,  2795.50000,   851.70000
    719.87,  2771.60000,   860.60000
    720.34,  2766.00000,   873.30000
    720.80,  2754.20000,   871.60000
    721.26,  2745.80000,   878.30000
    721.72,  2782.10000,   856.70000
    722.18,  2768.10000,   845.50000
    722.64,  2746.80000,   839.40000
    723.10,  2754.60000,   846.00000
    723.57,  2767.70000,   847.30000
    724.03,  2777.80000,   858.40000
    724.49,  2779.10000,   846.10000
    724.95,  2741.50000,   841.10000
    725.41,  2798.80000,   833.40000
    725.87,  2839.00000,   834.50000
    726.33,  2859.90000,   831.80000
    726.80,  2867.40000,   841.10000
    727.26,  2820.70000,   851.70000
    727.72,  2744.10000,   853.30000
    728.18,  2755.70000,   848.70000
    728.64,  2751.20000,   835.40000
    729.10,  2760.70000,   831.60000
    729.56,  2780.10000,   834.10000
    730.02,  2796.40000,   846.40000
    730.48,  2794.70000,   847.90000
    730.94,  2783.30000,   840.90000
    731.41,  2776.90000,   833.90000
    731.87,  2755.10000,   833.40000
    732.33,  2735.10000,   833.60000
    732.79,  2763.80000,   832.80000
    733.25,  2758.30000,   843.40000
    733.71,  2772.00000,   847.50000
    734.17,  2789.50000,   848.80000
    734.63,  2769.60000,   842.10000
    735.09,  2747.30000,   838.10000
    735.55,  2748.50000,   834.30000
    736.01,  2730.50000,   839.80000
    736.47,  2743.30000,   842.50000
    736.94,  2748.80000,   846.20000
    737.40,  2759.90000,   852.10000
    737.86,  2759.90000,   837.50000
    738.32,  2769.10000,   840.20000
    738.78,  2779.60000,   830.70000
    739.24,  2777.80000,   817.00000
    739.70,  2774.80000,   806.90000
    740.16,  2800.90000,   810.70000
    740.62,  2814.80000,   805.40000
    741.08,  2826.50000,   822.20000
    741.54,  2811.10000,   830.90000
    742.00,  2793.40000,   828.60000
    742.46,  2760.40000,   823.00000
    742.92,  2732.50000,   826.10000
    743.38,  2732.40000,   828.20000
    743.84,  2731.90000,   828.60000
    744.30,  2746.60000,   827.40000
    744.76,  2768.20000,   824.70000
    745.22,  2764.40000,   827.40000
    745.68,  2743.10000,   826.50000
    746.14,  2731.40000,   820.30000
    746.60,  2742.00000,   811.40000
    747.06,  2756.50000,   811.00000
    747.52,  2746.30000,   813.30000
    747.98,  2764.40000,   815.70000
    748.44,  2770.20000,   818.20000
    748.90,  2761.10000,   823.50000
    749.36,  2773.40000,   822.30000
    749.82,  2777.60000,   829.50000
    750.28,  2783.30000,   828.00000
    750.74,  2809.60000,   823.60000
    751.20,  2813.40000,   824.40000
    751.66,  2790.60000,   824.60000
    752.12,  2771.00000,   819.30000
    752.58,  2763.10000,   824.20000
    753.04,  2775.40000,   829.40000
    753.50,  2807.60000,   829.00000
    753.96,  2794.70000,   829.00000
    754.42,  2762.90000,   827.50000
    754.88,  2739.10000,   826.90000
    755.34,  2734.30000,   830.50000
    755.80,  2751.60000,   842.20000
    756.26,  2771.80000,   836.70000
    756.72,  2772.80000,   832.90000
    757.18,  2774.70000,   833.10000
    757.64,  2765.40000,   823.90000
    758.10,  2740.90000,   818.10000
    758.56,  2721.40000,   825.40000
    759.02,  2731.90000,   819.40000
    759.48,  2732.70000,   826.20000
    759.94,  2749.20000,   831.60000
    760.40,  2754.00000,   825.40000
    760.86,  2754.40000,   816.70000
    761.32,  2756.30000,   827.50000
    761.78,  2793.00000,   824.30000
    762.24,  2768.90000,   828.40000
    762.70,  2769.90000,   828.10000
    763.15,  2752.30000,   829.20000
    763.61,  2764.70000,   820.20000
    764.07,  2773.40000,   832.10000
    764.53,  2785.20000,   825.90000
    764.99,  2782.20000,   825.60000
    765.45,  2792.50000,   826.90000
    765.91,  2773.90000,   829.60000
    766.37,  2762.00000,   824.60000
    766.83,  2739.10000,   816.80000
    767.29,  2746.50000,   805.90000
    767.75,  2750.40000,   810.80000
    768.21,  2762.40000,   827.90000
    768.66,  2773.00000,   831.90000
    769.12,  2775.90000,   836.20000
    769.58,  2754.40000,   833.80000
    770.04,  2750.50000,   821.80000
    770.50,  2725.00000,   819.70000
    770.96,  2711.50000,   822.50000
    771.42,  2733.50000,   816.30000
    771.88,  2750.50000,   811.60000
    772.34,  2753.40000,   813.80000
    772.80,  2750.40000,   807.30000
    773.25,  2728.40000,   819.40000
    773.71,  2729.90000,   816.30000
    774.17,  2715.60000,   819.40000
    774.63,  2732.30000,   817.20000
    775.09,  2743.90000,   819.20000
    775.55,  2738.90000,   816.20000
    776.01,  2716.20000,   819.30000
    776.47,  2726.80000,   814.20000
    776.92,  2705.80000,   807.80000
    777.38,  2729.50000,   806.20000
    777.84,  2734.60000,   811.40000
    778.30,  2726.50000,   816.30000
    778.76,  2717.20000,   811.30000
    779.22,  2739.40000,   820.60000
    779.68,  2745.80000,   815.20000
    780.13,  2757.70000,   809.30000
    780.59,  2740.20000,   803.90000
    781.05,  2716.90000,   803.10000
    781.51,  2717.20000,   806.40000
    781.97,  2733.10000,   816.90000
    782.43,  2746.90000,   825.00000
    782.88,  2764.00000,   830.20000
    783.34,  2752.70000,   828.40000
    783.80,  2752.30000,   819.00000
    784.26,  2764.70000,   829.20000
    784.72,  2753.90000,   820.20000
    785.18,  2744.30000,   815.10000
    785.63,  2729.80000,   811.50000
    786.09,  2746.40000,   802.70000
    786.55,  2781.60000,   799.80000
    787.01,  2803.10000,   811.30000
    787.47,  2782.00000,   807.00000
    787.92,  2751.20000,   810.00000
    788.38,  2722.30000,   816.00000
    788.84,  2708.60000,   820.40000
    789.30,  2716.30000,   830.00000
    789.76,  2726.30000,   833.80000
    790.21,  2727.10000,   829.90000
    790.67,  2725.50000,   827.50000
    791.13,  2736.40000,   822.90000
    791.59,  2714.40000,   823.00000
    792.05,  2712.20000,   821.40000
    792.50,  2725.20000,   820.90000
    792.96,  2742.80000,   824.20000
    793.42,  2727.80000,   817.90000
    793.88,  2740.10000,   808.80000
    794.33,  2713.10000,   803.70000
    794.79,  2709.40000,   807.50000
    795.25,  2712.20000,   813.80000
    795.71,  2725.40000,   816.90000
    796.17,  2728.00000,   821.40000
    796.62,  2732.70000,   824.00000
    797.08,  2706.10000,   821.30000
    797.54,  2708.20000,   816.10000
    798.00,  2702.80000,   814.60000
    798.45,  2721.50000,   799.60000
    798.91,  2734.40000,   802.20000
    799.37,  2741.30000,   805.30000
    799.83,  2730.00000,   802.50000
    800.28,  2713.20000,   798.70000
    800.74,  2708.00000,   788.80000
    801.20,  2728.50000,   783.60000
    801.66,  2715.30000,   781.50000
    802.11,  2725.80000,   786.80000
    802.57,  2738.40000,   785.50000
    803.03,  2713.70000,   798.70000
    803.48,  2697.60000,   797.30000
    803.94,  2742.00000,   811.90000
    804.40,  2756.50000,   816.80000
    804.86,  2779.30000,   816.50000
    805.31,  2771.80000,   809.40000
    805.77,  2729.00000,   807.60000
    806.23,  2680.20000,   798.10000
    806.69,  2705.10000,   800.20000
    807.14,  2714.90000,   804.90000
    807.60,  2734.60000,   803.80000
    808.06,  2738.00000,   802.70000
    808.51,  2740.30000,   795.40000
    808.97,  2713.00000,   793.00000
    809.43,  2715.90000,   794.80000
    809.88,  2712.70000,   799.40000
    810.34,  2702.20000,   794.10000
    810.80,  2723.50000,   789.50000
    811.26,  2737.30000,   794.50000
    811.71,  2724.10000,   801.70000
    812.17,  2746.80000,   804.00000
    812.63,  2738.70000,   804.30000
    813.08,  2708.80000,   795.10000
    813.54,  2715.30000,   783.20000
    814.00,  2719.10000,   790.40000
    814.45,  2718.50000,   787.20000
    814.91,  2739.00000,   787.00000
    815.37,  2727.50000,   788.50000
    815.82,  2707.20000,   793.70000
    816.28,  2696.40000,   796.80000
    816.74,  2704.50000,   797.00000
    817.19,  2683.70000,   797.40000
    817.65,  2701.00000,   787.90000
    818.11,  2731.30000,   779.10000
    818.56,  2735.90000,   775.20000
    819.02,  2714.00000,   792.50000
    819.48,  2717.60000,   785.90000
    819.93,  2675.00000,   787.40000
    820.39,  2697.30000,   780.70000
    820.84,  2739.60000,   773.00000
    821.30,  2758.30000,   782.70000
    821.76,  2756.60000,   797.50000
    822.21,  2766.40000,   799.20000
    822.67,  2738.40000,   794.10000
    823.13,  2699.90000,   796.60000
    823.58,  2732.90000,   788.00000
    824.04,  2753.90000,   791.50000
    824.49,  2756.10000,   777.40000
    824.95,  2767.00000,   767.10000
    825.41,  2764.50000,   758.00000
    825.86,  2730.60000,   756.20000
    826.32,  2760.10000,   815.70000
    826.78,  2739.10000,   868.20000
    827.23,  2708.60000,   882.60000
    827.69,  2689.00000,   868.20000
    828.14,  2693.80000,   825.20000
    828.60,  2716.30000,   771.00000
    829.06,  2742.30000,   778.20000
    829.51,  2739.20000,   774.50000
    829.97,  2744.60000,   774.50000
    830.42,  2735.50000,   775.30000
    830.88,  2718.20000,   776.70000
    831.34,  2713.20000,   779.90000
    831.79,  2736.30000,   776.90000
    832.25,  2744.10000,   770.10000
    832.70,  2742.80000,   769.40000
    833.16,  2740.30000,   773.60000
    833.61,  2726.40000,   778.20000
    834.07,  2722.20000,   774.10000
    834.53,  2727.00000,   770.20000
    834.98,  2723.70000,   761.70000
    835.44,  2711.00000,   747.80000
    835.89,  2717.10000,   752.60000
    836.35,  2728.30000,   753.10000
    836.80,  2749.30000,   756.50000
    837.26,  2732.40000,   760.60000
    837.71,  2709.70000,   765.30000
    838.17,  2697.70000,   769.50000
    838.63,  2687.70000,   776.70000
    839.08,  2687.80000,   777.20000
    839.54,  2709.20000,   771.60000
    839.99,  2712.00000,   756.00000
    840.45,  2725.70000,   747.60000
    840.90,  2743.70000,   745.30000
    841.36,  2754.00000,   752.10000
    841.81,  2743.90000,   825.00000
    842.27,  2736.10000,   895.20000
    842.72,  2720.00000,   920.60000
    843.18,  2723.60000,   897.10000
    843.63,  2702.60000,   836.00000
    844.09,  2700.80000,   757.90000
    844.55,  2683.50000,   746.50000
    845.00,  2673.90000,   750.50000
    845.46,  2682.50000,   755.20000
    845.91,  2700.70000,   754.20000
    846.37,  2713.70000,   765.10000
    846.82,  2739.50000,   763.00000
    847.28,  2740.70000,   764.10000
    847.73,  2691.60000,   764.40000
    848.19,  2723.50000,   756.70000
    848.64,  2742.30000,   747.40000
    849.10,  2766.70000,   746.40000
    849.55,  2773.90000,   735.80000
    850.01,  2752.50000,   732.80000
    850.46,  2691.20000,   734.30000
    850.92,  2710.40000,   745.00000
    851.37,  2712.60000,   764.20000
    851.83,  2716.40000,   774.50000
    852.28,  2719.30000,   774.80000
    852.73,  2699.40000,   773.30000
    853.19,  2670.20000,   773.90000
    853.64,  2678.90000,   773.70000
    854.10,  2692.00000,   760.90000
    854.55,  2704.90000,   747.10000
    855.01,  2717.90000,   740.60000
    855.46,  2702.20000,   738.20000
    855.92,  2685.70000,   756.60000
    856.37,  2683.30000,   761.40000
    856.83,  2674.90000,   763.70000
    857.28,  2692.20000,   752.60000
    857.74,  2698.60000,   742.00000
    858.19,  2710.20000,   732.20000
    858.64,  2727.90000,   742.10000
    859.10,  2715.60000,   745.80000
    859.55,  2686.10000,   760.10000
    860.01,  2739.80000,   755.40000
    860.46,  2761.10000,   755.60000
    860.92,  2754.50000,   760.40000
    861.37,  2743.20000,   768.70000
    861.83,  2734.70000,   766.50000
    862.28,  2707.90000,   758.70000
    862.73,  2729.20000,   752.60000
    863.19,  2725.40000,   744.10000
    863.64,  2697.80000,   755.20000
    864.10,  2679.10000,   762.40000
    864.55,  2699.60000,   772.50000
    865.01,  2702.20000,   764.70000
    865.46,  2717.20000,   771.00000
    865.91,  2706.80000,   767.40000
    866.37,  2693.80000,   775.90000
    866.82,  2683.20000,   776.80000
    867.28,  2682.60000,   764.20000
    867.73,  2675.90000,   751.60000
    868.18,  2706.80000,   749.00000
    868.64,  2712.90000,   749.40000
    869.09,  2739.60000,   756.70000
    869.55,  2752.50000,   764.10000
    870.00,  2737.30000,   758.40000
    870.45,  2718.60000,   752.90000
    870.91,  2692.40000,   740.50000
    871.36,  2668.80000,   741.80000
    871.81,  2685.00000,   754.30000
    872.27,  2708.30000,   764.60000
    872.72,  2711.80000,   768.80000
    873.18,  2716.90000,   761.10000
    873.63,  2695.10000,   752.90000
    874.08,  2685.50000,   760.60000
    874.54,  2698.30000,   770.40000
    874.99,  2697.50000,   771.90000
    875.44,  2677.20000,   761.60000
    875.90,  2660.10000,   754.50000
    876.35,  2665.40000,   751.60000
    876.81,  2700.20000,   766.80000
    877.26,  2733.20000,   777.80000
    877.71,  2719.20000,   782.10000
    878.17,  2688.50000,   770.80000
    878.62,  2704.80000,   759.00000
    879.07,  2729.40000,   745.70000
    879.53,  2748.90000,   747.80000
    879.98,  2740.30000,   752.50000
    880.43,  2719.90000,   765.20000
    880.89,  2707.60000,   772.00000
    881.34,  2716.00000,   778.50000
    881.79,  2728.30000,   774.40000
    882.25,  2716.10000,   768.10000
    882.70,  2689.90000,   764.80000
    883.15,  2681.40000,   757.10000
    883.61,  2698.30000,   749.50000
    884.06,  2681.40000,   750.80000
    884.51,  2699.80000,   752.70000
    884.97,  2685.30000,   751.20000
    885.42,  2694.00000,   764.80000
    885.87,  2692.90000,   761.90000
    886.32,  2707.20000,   760.80000
    886.78,  2678.00000,   767.90000
    887.23,  2688.10000,   776.70000
    887.68,  2682.50000,   766.80000
    888.14,  2694.50000,   769.70000
    888.59,  2678.10000,   766.10000
    889.04,  2660.60000,   767.10000
    889.50,  2632.10000,   769.30000
    889.95,  2660.00000,   772.50000
    890.40,  2687.60000,   772.00000
    890.85,  2710.20000,   763.50000
    891.31,  2698.70000,   759.60000
    891.76,  2696.40000,   757.10000
    892.21,  2677.70000,   765.90000
    892.67,  2693.50000,   772.50000
    893.12,  2682.50000,   784.40000
    893.57,  2685.00000,   785.90000
    894.02,  2688.60000,   783.40000
    894.48,  2712.20000,   780.60000
    894.93,  2712.80000,   782.70000
    895.38,  2726.40000,   775.20000
    895.83,  2704.10000,   770.50000
    896.29,  2698.20000,   776.40000
    896.74,  2693.50000,   781.60000
    897.19,  2709.00000,   783.10000
    897.64,  2720.20000,   781.00000
    898.10,  2728.20000,   781.00000
    898.55,  2702.20000,   784.40000
    899.00,  2690.10000,   790.90000
    899.45,  2652.00000,   796.40000
    899.91,  2643.30000,   783.50000
    900.36,  2631.70000,   784.50000
    900.81,  2665.40000,   785.80000
    901.26,  2677.10000,   793.20000
    901.72,  2706.10000,   794.80000
    902.17,  2694.60000,   807.00000
    902.62,  2703.50000,   799.70000
    903.07,  2670.60000,   802.00000
    903.52,  2680.60000,   797.20000
    903.98,  2680.20000,   795.10000
    904.43,  2690.40000,   793.80000
    904.88,  2673.80000,   802.80000
    905.33,  2683.30000,   798.20000
    905.79,  2665.90000,   798.00000
    906.24,  2674.80000,   800.10000
    906.69,  2691.40000,   795.90000
    907.14,  2695.90000,   794.30000
    907.59,  2671.80000,   799.20000
    908.05,  2660.60000,   805.00000
    908.50,  2644.00000,   805.50000
    908.95,  2654.10000,   806.40000
    909.40,  2664.80000,   795.50000
    909.85,  2661.10000,   796.60000
    910.31,  2667.80000,   803.50000
    910.76,  2654.20000,   818.50000
    911.21,  2640.70000,   822.10000
    911.66,  2637.30000,   828.40000
    912.11,  2632.30000,   825.00000
    912.56,  2654.50000,   828.80000
    913.02,  2680.30000,   829.80000
    913.47,  2679.70000,   830.30000
    913.92,  2674.10000,   840.50000
    914.37,  2663.00000,   852.60000
    914.82,  2660.50000,   872.10000
    915.27,  2676.20000,   885.00000
    915.73,  2693.20000,   895.80000
    916.18,  2684.60000,   897.70000
    916.63,  2661.20000,   915.50000
    917.08,  2625.00000,   926.40000
    917.53,  2666.60000,   930.20000
    917.98,  2554.40000,   939.40000
    918.44,  2909.70000,   935.90000
    918.89,  3092.90000,   953.90000
    919.34,  3140.00000,   976.90000
    919.79,  3042.50000,   999.80000
    920.24,  2879.80000,  1019.30000
    920.69,  2551.80000,  1045.80000
    921.14,  2687.50000,  1069.60000
    921.59,  2675.50000,  1114.10000
    922.05,  2668.80000,  1161.60000
    922.50,  2669.60000,  1217.20000
    922.95,  2690.70000,  1289.50000
    923.40,  2712.50000,  1370.60000
    923.85,  2721.90000,  1472.20000
    924.30,  2722.20000,  1588.50000
    924.75,  2706.60000,  1726.60000
    925.20,  2691.30000,  1889.70000
    925.66,  2675.60000,  2091.60000
    926.11,  2671.20000,  2328.10000
    926.56,  2677.20000,  2579.70000
    927.01,  2694.90000,  2848.10000
    927.46,  2692.20000,  3128.80000
    927.91,  2663.10000,  3431.00000
    928.36,  2631.40000,  3771.80000
    928.81,  2636.60000,  4125.60000
    929.26,  2656.40000,  4483.10000
    929.71,  2687.00000,  4843.90000
    930.16,  2708.50000,  5145.00000
    930.62,  2683.30000,  5424.30000
    931.07,  2668.70000,  5649.60000
    931.52,  2670.00000,  5825.50000
    931.97,  2684.00000,  5995.40000
    932.42,  2689.50000,  6190.40000
    932.87,  2696.60000,  6366.70000
    933.32,  2668.60000,  6526.60000
    933.77,  2678.10000,  6620.00000
    934.22,  2687.70000,  6605.50000
    934.67,  2764.30000,  6527.10000
    935.12,  2786.10000,  6521.00000
    935.57,  2760.20000,  6602.70000
    936.02,  2698.20000,  6709.90000
    936.47,  2671.30000,  6806.60000
    936.93,  2628.70000,  6814.10000
    937.38,  2647.60000,  6794.80000
    937.83,  2659.30000,  6880.50000
    938.28,  2648.20000,  7045.60000
    938.73,  2647.30000,  7272.90000
    939.18,  2668.30000,  7515.60000
    939.63,  2669.50000,  7725.20000
    940.08,  2678.90000,  7860.30000
    940.53,  2701.10000,  8008.00000
    940.98,  2693.40000,  8181.30000
    941.43,  2674.30000,  8341.50000
    941.88,  2667.50000,  8494.70000
    942.33,  2661.30000,  8577.00000
    942.78,  2658.20000,  8568.50000
    943.23,  2674.80000,  8563.70000
    943.68,  2680.80000,  8570.20000
    944.13,  2691.80000,  8544.30000
    944.58,  2708.70000,  8537.90000
    945.03,  2703.10000,  8572.80000
    945.48,  2671.90000,  8647.00000
    945.93,  2662.10000,  8724.40000
    946.38,  2665.60000,  8753.30000
    946.83,  2687.40000,  8731.20000
    947.28,  2698.30000,  8711.60000
    947.73,  2699.60000,  8737.80000
    948.18,  2667.40000,  8756.60000
    948.63,  2656.40000,  8758.20000
    949.08,  2657.60000,  8752.20000
    949.53,  2642.80000,  8693.90000
    949.98,  2634.20000,  8635.90000
    950.43,  2650.50000,  8561.70000
    950.88,  2658.10000,  8414.70000
    951.33,  2675.50000,  8246.90000
    951.78,  2697.20000,  8134.20000
    952.23,  2692.90000,  8051.20000
    952.68,  2674.60000,  8028.60000
    953.13,  2675.50000,  8031.90000
    953.58,  2679.50000,  8007.80000
    954.03,  2660.70000,  7976.20000
    954.48,  2649.30000,  7950.40000
    954.93,  2646.40000,  7908.40000
    955.38,  2641.70000,  7766.20000
    955.83,  2654.20000,  7564.80000
    956.28,  2663.90000,  7340.60000
    956.73,  2670.00000,  7104.10000
    957.18,  2668.90000,  6902.30000
    957.62,  2655.20000,  6711.30000
    958.07,  2666.10000,  6483.70000
    958.52,  2661.60000,  6330.10000
    958.97,  2653.10000,  6224.60000
    959.42,  2651.90000,  6104.20000
    959.87,  2654.50000,  5961.30000
    960.32,  2667.10000,  5748.80000
    960.77,  2702.60000,  5516.60000
    961.22,  2738.60000,  5349.10000
    961.67,  2745.10000,  5176.20000
    962.12,  2712.00000,  5021.90000
    962.57,  2684.70000,  4878.10000
    963.02,  2683.30000,  4755.60000
    963.47,  2666.40000,  4675.40000
    963.92,  2678.90000,  4639.30000
    964.36,  2678.90000,  4585.10000
    964.81,  2671.90000,  4511.90000
    965.26,  2678.60000,  4423.70000
    965.71,  2685.60000,  4341.20000
    966.16,  2677.90000,  4266.00000
    966.61,  2668.30000,  4191.30000
    967.06,  2653.60000,  4105.30000
    967.51,  2667.10000,  3966.70000
    967.96,  2677.30000,  3819.60000
    968.41,  2681.60000,  3685.60000
    968.85,  2683.30000,  3549.90000
    969.30,  2676.50000,  3405.30000
    969.75,  2680.90000,  3260.80000
    970.20,  2682.60000,  3113.80000
    970.65,  2686.30000,  2985.70000
    971.10,  2674.80000,  2887.40000
    971.55,  2678.80000,  2793.90000
    972.00,  2667.80000,  2701.70000
    972.44,  2655.50000,  2634.80000
    972.89,  2679.00000,  2559.20000
    973.34,  2692.40000,  2490.60000
    973.79,  2691.50000,  2423.90000
    974.24,  2704.90000,  2374.50000
    974.69,  2680.50000,  2346.00000
    975.14,  2642.60000,  2358.90000
    975.59,  2648.30000,  2372.70000
    976.03,  2633.50000,  2400.80000
    976.48,  2627.40000,  2429.70000
    976.93,  2632.40000,  2448.40000
    977.38,  2632.40000,  2461.90000
    977.83,  2620.20000,  2470.70000
    978.28,  2632.20000,  2463.70000
    978.72,  2647.40000,  2433.50000
    979.17,  2662.50000,  2399.90000
    979.62,  2679.40000,  2362.60000
    980.07,  2686.60000,  2355.70000
    980.52,  2672.10000,  2387.20000
    980.97,  2651.20000,  2434.80000
    981.41,  2610.10000,  2473.00000
    981.86,  2591.70000,  2470.00000
    982.31,  2611.90000,  2433.90000
    982.76,  2631.40000,  2370.30000
    983.21,  2663.70000,  2298.30000
    983.66,  2666.90000,  2217.90000
    984.10,  2635.10000,  2141.70000
    984.55,  2620.00000,  2048.80000
    985.00,  2611.90000,  1974.00000
    985.45,  2596.10000,  1904.30000
    985.90,  2617.80000,  1830.70000
    986.34,  2634.70000,  1766.90000
    986.79,  2623.50000,  1708.40000
    987.24,  2627.40000,  1657.40000
    987.69,  2604.50000,  1625.00000
    988.14,  2601.70000,  1593.90000
    988.58,  2623.80000,  1539.50000
    989.03,  2642.60000,  1478.60000
    989.48,  2641.50000,  1422.40000
    989.93,  2642.30000,  1371.70000
    990.38,  2623.00000,  1335.00000
    990.82,  2628.90000,  1309.70000
    991.27,  2643.70000,  1288.60000
    991.72,  2663.60000,  1268.00000
    992.17,  2638.10000,  1253.30000
    992.61,  2644.10000,  1218.60000
    993.06,  2625.80000,  1181.20000
    993.51,  2653.50000,  1149.50000
    993.96,  2658.50000,  1138.20000
    994.41,  2649.70000,  1125.30000
    994.85,  2621.40000,  1118.50000
    995.30,  2634.70000,  1097.00000
    995.75,  2630.90000,  1069.00000
    996.20,  2675.70000,  1042.40000
    996.64,  2664.50000,  1027.50000
    997.09,  2638.90000,  1011.60000
    997.54,  2626.80000,  1001.10000
    997.99,  2610.80000,   991.10000
    998.43,  2610.30000,   971.50000
    998.88,  2607.10000,   966.00000
    999.33,  2608.60000,   962.70000
    999.77,  2633.60000,   963.10000
   1000.22,  2652.40000,   957.90000
   1000.67,  2666.60000,   952.60000
   1001.12,  2677.00000,   938.00000
   1001.56,  2640.60000,   936.00000
   1002.01,  2623.70000,   924.50000
   1002.46,  2634.90000,   919.10000
   1002.91,  2613.10000,   917.90000
   1003.35,  2628.70000,   914.70000
   1003.80,  2622.70000,   915.20000
   1004.25,  2623.00000,   912.30000
   1004.69,  2624.20000,   909.10000
   1005.14,  2618.00000,   908.80000
   1005.59,  2617.00000,   914.70000
   1006.04,  2650.10000,   911.90000
   1006.48,  2667.40000,   905.50000
   1006.93,  2691.80000,   893.00000
   1007.38,  2681.30000,   894.80000
   1007.82,  2636.20000,   890.20000
   1008.27,  2612.90000,   893.30000
   1008.72,  2602.60000,   899.70000
   1009.16,  2601.70000,   905.80000
   1009.61,  2608.90000,   908.90000
   1010.06,  2614.40000,   909.90000
   1010.50,  2643.60000,   895.20000
   1010.95,  2671.30000,   892.20000
   1011.40,  2681.50000,   895.30000
   1011.85,  2659.90000,   901.90000
   1012.29,  2646.70000,   899.60000
   1012.74,  2608.40000,   892.70000
   1013.19,  2601.60000,   886.50000
   1013.63,  2642.40000,   889.30000
   1014.08,  2669.90000,   894.30000
   1014.53,  2670.70000,   895.40000
   1014.97,  2662.30000,   893.00000
   1015.42,  2630.20000,   890.30000
   1015.86,  2587.80000,   897.00000
   1016.31,  2611.60000,   899.90000
   1016.76,  2637.00000,   898.70000
   1017.20,  2630.80000,   892.00000
   1017.65,  2611.10000,   895.70000
   1018.10,  2612.30000,   897.00000
   1018.54,  2595.40000,   898.80000
   1018.99,  2624.40000,   896.80000
   1019.44,  2633.50000,   897.50000
   1019.88,  2632.60000,   885.40000
   1020.33,  2623.70000,   889.80000
   1020.78,  2625.50000,   896.30000
   1021.22,  2628.90000,   904.30000
   1021.67,  2628.20000,   911.00000
   1022.11,  2617.70000,   919.90000
   1022.56,  2621.80000,   914.90000
   1023.01,  2609.10000,   914.90000
   1023.45,  2592.60000,   910.30000
   1023.90,  2595.30000,   903.30000
   1024.34,  2579.60000,   899.40000
   1024.79,  2590.30000,   894.40000
   1025.24,  2610.60000,   900.50000
   1025.68,  2608.00000,   900.50000
   1026.13,  2609.60000,   896.80000
   1026.58,  2617.10000,   892.60000
   1027.02,  2631.30000,   895.00000
   1027.47,  2636.30000,   900.50000
   1027.91,  2633.80000,   909.10000
   1028.36,  2606.60000,   906.70000
   1028.80,  2594.50000,   904.90000
   1029.25,  2582.40000,   906.70000
   1029.70,  2595.90000,   904.80000
   1030.14,  2596.50000,   911.80000
   1030.59,  2594.30000,   908.90000
   1031.03,  2593.30000,   900.60000
   1031.48,  2600.50000,   901.00000
   1031.93,  2626.60000,   901.70000
   1032.37,  2657.00000,   900.20000
   1032.82,  2658.20000,   907.00000
   1033.26,  2661.90000,   909.80000
   1033.71,  2641.20000,   905.80000
   1034.15,  2627.10000,   903.20000
   1034.60,  2622.50000,   901.10000
   1035.05,  2633.90000,   902.90000
   1035.49,  2621.30000,   904.00000
   1035.94,  2616.50000,   921.00000
   1036.38,  2579.40000,   927.70000
   1036.83,  2561.30000,   923.40000
   1037.27,  2551.50000,   908.30000
   1037.72,  2556.80000,   901.20000
   1038.16,  2663.10000,   893.80000
   1038.61,  2735.40000,   908.80000
   1039.05,  2743.20000,   920.00000
   1039.50,  2727.50000,   928.60000
   1039.95,  2674.50000,   924.20000
   1040.39,  2608.40000,   922.30000
   1040.84,  2616.30000,   922.10000
   1041.28,  2612.90000,   925.80000
   1041.73,  2601.20000,   928.30000
   1042.17,  2597.50000,   930.60000
   1042.62,  2601.30000,   923.10000
   1043.06,  2621.80000,   909.10000
   1043.51,  2604.90000,   910.80000
   1043.95,  2620.40000,   913.10000
   1044.40,  2615.60000,   924.40000
   1044.84,  2594.40000,   935.10000
   1045.29,  2585.80000,   933.20000
   1045.73,  2593.60000,   929.70000
   1046.18,  2579.10000,   925.60000
   1046.62,  2580.90000,   927.50000
   1047.07,  2574.50000,   929.70000
   1047.51,  2562.40000,   927.50000
   1047.96,  2599.20000,   919.40000
   1048.40,  2646.60000,   924.30000
   1048.85,  2661.30000,   925.70000
   1049.29,  2645.80000,   930.20000
   1049.74,  2599.90000,   936.10000
   1050.18,  2557.10000,   945.90000
   1050.63,  2555.90000,   947.70000
   1051.07,  2565.20000,   955.50000
   1051.52,  2579.40000,   967.50000
   1051.96,  2570.60000,   960.10000
   1052.41,  2562.20000,   956.50000
   1052.85,  2564.50000,   948.00000
   1053.30,  2561.90000,   930.80000
   1053.74,  2558.10000,   933.60000
   1054.18,  2557.90000,   947.60000
   1054.63,  2537.40000,   956.50000
   1055.07,  2534.20000,   954.00000
   1055.52,  2539.70000,   940.10000
   1055.96,  2536.40000,   935.60000
   1056.41,  2529.90000,   950.30000
   1056.85,  2520.10000,   964.30000
   1057.30,  2516.50000,   975.60000
   1057.74,  2513.50000,   971.30000
   1058.18,  2516.60000,   964.00000
   1058.63,  2487.90000,   964.80000
   1059.07,  2491.30000,   967.00000
   1059.52,  2507.30000,   965.20000
   1059.96,  2515.40000,   966.50000
   1060.41,  2513.70000,   974.40000
   1060.85,  2524.10000,   973.00000
   1061.30,  2501.20000,   976.90000
   1061.74,  2497.50000,   983.30000
   1062.18,  2497.60000,   973.20000
   1062.63,  2479.10000,   974.60000
   1063.07,  2471.30000,   982.40000
   1063.52,  2480.40000,   974.00000
   1063.96,  2501.00000,   974.40000
   1064.40,  2503.40000,   982.90000
   1064.85,  2496.60000,   974.90000
   1065.29,  2472.50000,   984.20000
   1065.74,  2452.60000,   990.90000
   1066.18,  2424.10000,   991.50000
