2D Measure spectrum data V5.74

<< MEASURE 1 >>
Data count = 2048
Exposure time = 30000 msec
Average = 10
Inspected time = 2020/10/23 17:32

Wave-dcm-1,Dark spec.  ,Spectrum
    108.17,  2225.80000,   710.50000
    108.66,  2238.10000,   699.20000
    109.15,  2245.10000,   695.60000
    109.65,  2268.00000,   689.00000
    110.14,  2279.70000,   685.90000
    110.63,  2289.90000,   677.90000
    111.13,  2311.20000,   657.60000
    111.62,  2304.20000,   642.20000
    112.11,  2309.40000,   641.70000
    112.60,  2321.70000,   640.50000
    113.10,  2318.10000,   627.90000
    113.59,  2336.80000,   627.20000
    114.08,  2359.30000,   618.00000
    114.58,  2344.90000,   624.60000
    115.07,  2385.20000,   632.00000
    115.56,  2390.00000,   636.40000
    116.06,  2388.60000,   624.80000
    116.55,  2393.50000,   619.10000
    117.04,  2390.20000,   613.90000
    117.53,  2374.20000,   607.30000
    118.03,  2410.20000,   607.20000
    118.52,  2409.70000,   617.20000
    119.01,  2404.40000,   624.40000
    119.51,  2487.20000,   631.30000
    120.00,  2567.90000,   649.10000
    120.49,  2602.70000,   650.90000
    120.98,  2595.10000,   666.00000
    121.48,  2516.40000,   676.80000
    121.97,  2418.80000,   685.20000
    122.46,  2409.00000,   690.30000
    122.95,  2438.70000,   699.80000
    123.45,  2479.20000,   700.30000
    123.94,  2483.20000,   715.50000
    124.43,  2506.00000,   722.80000
    124.92,  2535.10000,   727.60000
    125.42,  2529.30000,   740.00000
    125.91,  2549.80000,   749.80000
    126.40,  2539.80000,   769.20000
    126.89,  2512.60000,   786.10000
    127.39,  2501.10000,   798.20000
    127.88,  2493.70000,   810.10000
    128.37,  2489.90000,   821.90000
    128.86,  2515.40000,   826.50000
    129.35,  2511.60000,   836.00000
    129.85,  2521.10000,   839.00000
    130.34,  2515.00000,   846.30000
    130.83,  2518.60000,   852.10000
    131.32,  2527.20000,   854.90000
    131.81,  2532.00000,   860.50000
    132.31,  2530.00000,   865.50000
    132.80,  2523.50000,   872.90000
    133.29,  2503.50000,   881.10000
    133.78,  2510.90000,   881.90000
    134.27,  2531.70000,   882.50000
    134.77,  2538.90000,   895.80000
    135.26,  2565.20000,   906.10000
    135.75,  2562.60000,   917.80000
    136.24,  2573.80000,   935.10000
    136.73,  2560.90000,   932.10000
    137.23,  2576.20000,   924.80000
    137.72,  2570.20000,   921.90000
    138.21,  2572.10000,   915.20000
    138.70,  2570.40000,   914.70000
    139.19,  2601.70000,   937.70000
    139.68,  2585.80000,   956.20000
    140.18,  2582.80000,   972.60000
    140.67,  2591.10000,   985.50000
    141.16,  2590.90000,   980.60000
    141.65,  2591.70000,   962.00000
    142.14,  2590.50000,   963.30000
    142.63,  2610.40000,   964.40000
    143.13,  2608.50000,   977.70000
    143.62,  2643.20000,   984.80000
    144.11,  2639.40000,   995.50000
    144.60,  2602.20000,  1000.70000
    145.09,  2588.70000,  1015.60000
    145.58,  2645.00000,  1027.30000
    146.07,  2661.40000,  1036.60000
    146.56,  2673.10000,  1035.40000
    147.06,  2659.60000,  1042.90000
    147.55,  2627.50000,  1043.30000
    148.04,  2589.30000,  1052.10000
    148.53,  2620.50000,  1065.60000
    149.02,  2597.00000,  1075.70000
    149.51,  2668.50000,  1091.00000
    150.00,  2720.00000,  1105.00000
    150.49,  2747.30000,  1107.20000
    150.99,  2744.80000,  1113.00000
    151.48,  2725.40000,  1124.30000
    151.97,  2642.80000,  1149.90000
    152.46,  2646.00000,  1181.70000
    152.95,  2621.20000,  1212.90000
    153.44,  2620.90000,  1239.00000
    153.93,  2639.10000,  1260.50000
    154.42,  2662.50000,  1273.30000
    154.91,  2651.40000,  1278.10000
    155.40,  2643.40000,  1286.30000
    155.89,  2629.60000,  1294.20000
    156.39,  2649.10000,  1310.60000
    156.88,  2621.10000,  1325.50000
    157.37,  2627.80000,  1334.30000
    157.86,  2631.10000,  1334.30000
    158.35,  2635.50000,  1336.50000
    158.84,  2651.30000,  1345.20000
    159.33,  2696.20000,  1369.10000
    159.82,  2700.20000,  1393.80000
    160.31,  2720.50000,  1415.60000
    160.80,  2753.40000,  1444.20000
    161.29,  2709.40000,  1463.00000
    161.78,  2679.00000,  1475.20000
    162.27,  2646.40000,  1487.90000
    162.76,  2641.20000,  1496.20000
    163.25,  2654.80000,  1505.20000
    163.74,  2680.90000,  1531.00000
    164.23,  2685.20000,  1546.40000
    164.72,  2703.20000,  1569.30000
    165.21,  2675.40000,  1586.70000
    165.70,  2661.20000,  1600.80000
    166.20,  2703.20000,  1614.80000
    166.69,  2728.10000,  1625.50000
    167.18,  2749.10000,  1636.80000
    167.67,  2743.20000,  1663.90000
    168.16,  2709.30000,  1685.70000
    168.65,  2659.60000,  1697.70000
    169.14,  2690.10000,  1707.40000
    169.63,  2691.30000,  1703.20000
    170.12,  2689.00000,  1699.90000
    170.61,  2677.00000,  1695.60000
    171.10,  2725.90000,  1685.00000
    171.59,  2721.20000,  1664.20000
    172.08,  2733.30000,  1646.70000
    172.57,  2728.40000,  1646.90000
    173.06,  2723.40000,  1647.20000
    173.55,  2706.40000,  1648.80000
    174.04,  2691.60000,  1648.70000
    174.53,  2683.00000,  1649.60000
    175.02,  2681.60000,  1651.00000
    175.50,  2708.30000,  1671.30000
    175.99,  2744.70000,  1665.10000
    176.48,  2777.60000,  1656.30000
    176.97,  2753.70000,  1658.70000
    177.46,  2753.70000,  1667.10000
    177.95,  2732.50000,  1660.70000
    178.44,  2711.80000,  1663.40000
    178.93,  2696.60000,  1647.30000
    179.42,  2711.30000,  1635.20000
    179.91,  2715.90000,  1642.30000
    180.40,  2722.90000,  1644.40000
    180.89,  2733.50000,  1633.80000
    181.38,  2725.60000,  1632.10000
    181.87,  2723.50000,  1638.10000
    182.36,  2719.30000,  1644.10000
    182.85,  2690.40000,  1651.10000
    183.34,  2712.00000,  1647.90000
    183.83,  2720.00000,  1646.00000
    184.32,  2724.60000,  1643.60000
    184.81,  2763.90000,  1653.20000
    185.29,  2758.70000,  1652.80000
    185.78,  2722.00000,  1654.70000
    186.27,  2731.70000,  1648.80000
    186.76,  2721.00000,  1640.40000
    187.25,  2697.30000,  1638.30000
    187.74,  2765.20000,  1640.40000
    188.23,  2791.20000,  1632.50000
    188.72,  2811.20000,  1629.80000
    189.21,  2798.80000,  1616.60000
    189.70,  2777.20000,  1600.40000
    190.19,  2739.50000,  1607.50000
    190.67,  2722.90000,  1612.70000
    191.16,  2719.40000,  1617.30000
    191.65,  2725.00000,  1619.60000
    192.14,  2709.70000,  1614.20000
    192.63,  2735.70000,  1610.70000
    193.12,  2743.80000,  1621.70000
    193.61,  2719.30000,  1638.40000
    194.10,  2737.60000,  1648.70000
    194.59,  2732.30000,  1649.40000
    195.07,  2726.90000,  1648.60000
    195.56,  2745.40000,  1640.20000
    196.05,  2736.30000,  1623.30000
    196.54,  2724.40000,  1622.60000
    197.03,  2749.20000,  1617.70000
    197.52,  2782.10000,  1619.70000
    198.01,  2783.70000,  1634.00000
    198.49,  2787.10000,  1638.90000
    198.98,  2782.00000,  1647.30000
    199.47,  2741.70000,  1653.40000
    199.96,  2729.10000,  1650.70000
    200.45,  2746.60000,  1639.10000
    200.94,  2731.60000,  1628.40000
    201.43,  2741.10000,  1610.80000
    201.91,  2736.20000,  1602.70000
    202.40,  2722.60000,  1595.00000
    202.89,  2719.00000,  1589.00000
    203.38,  2736.10000,  1588.20000
    203.87,  2733.80000,  1592.20000
    204.36,  2721.90000,  1603.20000
    204.84,  2712.10000,  1609.90000
    205.33,  2729.90000,  1607.90000
    205.82,  2749.40000,  1605.10000
    206.31,  2750.70000,  1597.90000
    206.80,  2754.30000,  1590.40000
    207.28,  2761.10000,  1596.30000
    207.77,  2762.00000,  1615.10000
    208.26,  2773.40000,  1625.40000
    208.75,  2773.20000,  1641.90000
    209.24,  2746.40000,  1648.70000
    209.72,  2752.20000,  1653.30000
    210.21,  2762.80000,  1650.90000
    210.70,  2743.00000,  1653.00000
    211.19,  2769.70000,  1655.00000
    211.68,  2786.60000,  1662.20000
    212.16,  2786.30000,  1678.30000
    212.65,  2792.50000,  1689.80000
    213.14,  2774.00000,  1697.30000
    213.63,  2758.20000,  1703.70000
    214.12,  2747.50000,  1711.80000
    214.60,  2763.60000,  1720.50000
    215.09,  2780.00000,  1732.50000
    215.58,  2781.80000,  1742.70000
    216.07,  2773.60000,  1746.90000
    216.55,  2778.70000,  1746.60000
    217.04,  2714.50000,  1755.30000
    217.53,  2709.50000,  1775.10000
    218.02,  2706.30000,  1801.60000
    218.50,  2714.60000,  1832.60000
    218.99,  2736.00000,  1849.60000
    219.48,  2769.00000,  1862.70000
    219.97,  2733.40000,  1884.80000
    220.45,  2741.60000,  1914.00000
    220.94,  2730.60000,  1948.00000
    221.43,  2748.50000,  1984.20000
    221.92,  2770.10000,  2014.10000
    222.40,  2770.80000,  2035.10000
    222.89,  2761.70000,  2051.70000
    223.38,  2779.40000,  2070.20000
    223.86,  2795.40000,  2091.40000
    224.35,  2818.70000,  2121.70000
    224.84,  2815.60000,  2165.40000
    225.33,  2798.40000,  2181.60000
    225.81,  2773.30000,  2191.50000
    226.30,  2760.60000,  2195.40000
    226.79,  2760.00000,  2197.60000
    227.27,  2749.80000,  2201.40000
    227.76,  2746.50000,  2210.20000
    228.25,  2767.10000,  2211.30000
    228.74,  2776.00000,  2216.20000
    229.22,  2794.90000,  2220.50000
    229.71,  2793.70000,  2207.00000
    230.20,  2784.50000,  2166.20000
    230.68,  2781.60000,  2124.90000
    231.17,  2766.50000,  2090.00000
    231.66,  2738.20000,  2061.80000
    232.14,  2731.40000,  2048.90000
    232.63,  2724.60000,  2019.60000
    233.12,  2753.50000,  1978.80000
    233.60,  2778.50000,  1944.00000
    234.09,  2756.30000,  1906.10000
    234.58,  2741.50000,  1870.30000
    235.06,  2744.80000,  1835.30000
    235.55,  2740.50000,  1797.60000
    236.04,  2742.10000,  1761.50000
    236.52,  2760.10000,  1732.40000
    237.01,  2743.80000,  1710.00000
    237.50,  2778.00000,  1692.70000
    237.98,  2771.00000,  1669.60000
    238.47,  2823.30000,  1644.80000
    238.96,  2830.10000,  1629.50000
    239.44,  2817.80000,  1616.10000
    239.93,  2812.00000,  1600.50000
    240.41,  2772.10000,  1594.20000
    240.90,  2701.00000,  1578.80000
    241.39,  2727.70000,  1566.20000
    241.87,  2765.30000,  1574.50000
    242.36,  2783.40000,  1579.50000
    242.85,  2826.70000,  1572.30000
    243.33,  2814.70000,  1572.70000
    243.82,  2786.80000,  1556.30000
    244.30,  2756.90000,  1544.20000
    244.79,  2765.90000,  1533.20000
    245.28,  2755.40000,  1536.60000
    245.76,  2754.50000,  1526.60000
    246.25,  2737.20000,  1525.70000
    246.74,  2759.10000,  1511.70000
    247.22,  2782.30000,  1509.20000
    247.71,  2782.50000,  1509.10000
    248.19,  2768.80000,  1521.60000
    248.68,  2764.70000,  1519.70000
    249.16,  2727.00000,  1517.90000
    249.65,  2764.00000,  1505.20000
    250.14,  2784.90000,  1500.90000
    250.62,  2760.70000,  1503.30000
    251.11,  2739.40000,  1507.50000
    251.59,  2724.20000,  1506.70000
    252.08,  2715.00000,  1503.60000
    252.57,  2733.20000,  1503.30000
    253.05,  2742.20000,  1500.40000
    253.54,  2777.90000,  1492.60000
    254.02,  2804.70000,  1479.40000
    254.51,  2804.10000,  1478.90000
    254.99,  2798.50000,  1478.20000
    255.48,  2767.00000,  1480.60000
    255.96,  2735.10000,  1488.30000
    256.45,  2764.10000,  1483.00000
    256.94,  2771.50000,  1473.90000
    257.42,  2764.60000,  1484.70000
    257.91,  2770.70000,  1482.30000
    258.39,  2780.00000,  1465.90000
    258.88,  2763.50000,  1467.90000
    259.36,  2785.10000,  1466.80000
    259.85,  2779.50000,  1473.80000
    260.33,  2785.20000,  1491.30000
    260.82,  2803.60000,  1488.60000
    261.30,  2818.30000,  1470.70000
    261.79,  2790.90000,  1466.20000
    262.27,  2770.20000,  1465.50000
    262.76,  2752.60000,  1471.00000
    263.24,  2745.90000,  1490.10000
    263.73,  2772.10000,  1493.00000
    264.22,  2771.60000,  1494.10000
    264.70,  2844.20000,  1487.50000
    265.19,  2871.80000,  1489.80000
    265.67,  2872.00000,  1488.60000
    266.16,  2838.70000,  1500.60000
    266.64,  2807.00000,  1511.70000
    267.13,  2738.90000,  1522.50000
    267.61,  2750.20000,  1519.40000
    268.10,  2764.20000,  1522.10000
    268.58,  2769.20000,  1511.60000
    269.06,  2771.90000,  1512.50000
    269.55,  2788.70000,  1520.40000
    270.03,  2793.50000,  1535.30000
    270.52,  2787.10000,  1547.00000
    271.00,  2796.10000,  1551.60000
    271.49,  2793.30000,  1556.60000
    271.97,  2798.60000,  1559.20000
    272.46,  2807.40000,  1567.20000
    272.94,  2803.90000,  1584.40000
    273.43,  2794.20000,  1595.20000
    273.91,  2766.30000,  1597.00000
    274.40,  2748.20000,  1612.10000
    274.88,  2741.50000,  1606.50000
    275.37,  2741.80000,  1621.20000
    275.85,  2744.40000,  1625.70000
    276.33,  2754.10000,  1640.10000
    276.82,  2768.10000,  1651.30000
    277.30,  2777.30000,  1669.40000
    277.79,  2772.30000,  1670.90000
    278.27,  2783.90000,  1674.10000
    278.76,  2804.90000,  1670.00000
    279.24,  2813.00000,  1684.40000
    279.73,  2815.80000,  1687.30000
    280.21,  2801.70000,  1706.20000
    280.69,  2770.20000,  1724.60000
    281.18,  2773.90000,  1727.20000
    281.66,  2797.60000,  1727.70000
    282.15,  2829.00000,  1742.20000
    282.63,  2828.70000,  1739.10000
    283.11,  2814.80000,  1749.00000
    283.60,  2807.50000,  1758.60000
    284.08,  2814.20000,  1771.20000
    284.57,  2795.70000,  1768.30000
    285.05,  2789.30000,  1784.40000
    285.53,  2766.10000,  1796.80000
    286.02,  2737.50000,  1799.70000
    286.50,  2756.20000,  1802.20000
    286.99,  2775.90000,  1804.20000
    287.47,  2769.50000,  1797.00000
    287.95,  2766.50000,  1801.30000
    288.44,  2758.10000,  1810.40000
    288.92,  2751.40000,  1805.70000
    289.41,  2767.40000,  1802.90000
    289.89,  2791.80000,  1798.30000
    290.37,  2797.60000,  1798.00000
    290.86,  2824.50000,  1792.30000
    291.34,  2795.80000,  1789.80000
    291.82,  2777.80000,  1783.00000
    292.31,  2760.10000,  1778.30000
    292.79,  2768.10000,  1780.90000
    293.28,  2763.20000,  1781.40000
    293.76,  2779.60000,  1762.60000
    294.24,  2786.30000,  1740.10000
    294.73,  2808.50000,  1715.10000
    295.21,  2818.10000,  1696.20000
    295.69,  2823.50000,  1698.80000
    296.18,  2789.50000,  1705.00000
    296.66,  2750.90000,  1689.00000
    297.14,  2749.60000,  1670.00000
    297.63,  2761.50000,  1654.00000
    298.11,  2778.40000,  1640.00000
    298.59,  2807.00000,  1637.70000
    299.08,  2810.10000,  1630.40000
    299.56,  2814.00000,  1604.40000
    300.04,  2836.80000,  1582.50000
    300.53,  2842.00000,  1567.30000
    301.01,  2839.40000,  1553.70000
    301.49,  2831.10000,  1545.60000
    301.98,  2794.00000,  1544.10000
    302.46,  2769.50000,  1535.50000
    302.94,  2764.10000,  1528.30000
    303.42,  2767.10000,  1505.20000
    303.91,  2758.10000,  1488.40000
    304.39,  2742.90000,  1487.70000
    304.87,  2743.40000,  1490.20000
    305.36,  2768.30000,  1477.20000
    305.84,  2800.80000,  1464.60000
    306.32,  2834.30000,  1447.20000
    306.81,  2818.60000,  1429.10000
    307.29,  2784.50000,  1425.30000
    307.77,  2770.00000,  1416.60000
    308.25,  2775.10000,  1401.80000
    308.74,  2793.90000,  1389.10000
    309.22,  2791.10000,  1381.80000
    309.70,  2778.80000,  1371.40000
    310.18,  2764.60000,  1373.70000
    310.67,  2770.10000,  1379.40000
    311.15,  2787.00000,  1377.50000
    311.63,  2799.40000,  1363.00000
    312.12,  2803.50000,  1342.10000
    312.60,  2781.50000,  1327.30000
    313.08,  2760.60000,  1313.20000
    313.56,  2748.00000,  1309.90000
    314.05,  2746.00000,  1309.60000
    314.53,  2758.40000,  1315.90000
    315.01,  2810.70000,  1312.60000
    315.49,  2811.80000,  1309.10000
    315.98,  2813.40000,  1300.30000
    316.46,  2790.80000,  1288.50000
    316.94,  2751.80000,  1291.30000
    317.42,  2731.40000,  1301.80000
    317.90,  2746.50000,  1287.30000
    318.39,  2729.20000,  1280.20000
    318.87,  2776.90000,  1268.70000
    319.35,  2800.60000,  1252.40000
    319.83,  2804.50000,  1257.30000
    320.32,  2815.40000,  1262.70000
    320.80,  2827.60000,  1262.80000
    321.28,  2789.10000,  1258.70000
    321.76,  2828.30000,  1244.10000
    322.24,  2830.00000,  1231.80000
    322.73,  2837.70000,  1231.40000
    323.21,  2837.90000,  1233.20000
    323.69,  2834.80000,  1241.70000
    324.17,  2779.50000,  1248.30000
    324.65,  2757.20000,  1243.10000
    325.14,  2758.20000,  1250.50000
    325.62,  2772.10000,  1254.60000
    326.10,  2819.30000,  1256.20000
    326.58,  2843.60000,  1240.10000
    327.06,  2803.00000,  1236.10000
    327.55,  2824.10000,  1225.20000
    328.03,  2843.80000,  1230.20000
    328.51,  2853.90000,  1235.90000
    328.99,  2869.70000,  1246.00000
    329.47,  2855.70000,  1238.40000
    329.95,  2780.00000,  1235.70000
    330.44,  2788.10000,  1227.40000
    330.92,  2760.00000,  1217.50000
    331.40,  2742.60000,  1217.10000
    331.88,  2735.20000,  1226.60000
    332.36,  2743.90000,  1232.70000
    332.84,  2770.00000,  1233.50000
    333.33,  2819.60000,  1219.10000
    333.81,  2827.90000,  1207.10000
    334.29,  2833.10000,  1205.70000
    334.77,  2830.50000,  1209.80000
    335.25,  2812.50000,  1212.10000
    335.73,  2830.80000,  1202.00000
    336.21,  2826.70000,  1192.10000
    336.69,  2807.50000,  1188.10000
    337.18,  2791.40000,  1193.60000
    337.66,  2768.90000,  1200.70000
    338.14,  2746.90000,  1198.40000
    338.62,  2745.10000,  1187.60000
    339.10,  2767.70000,  1194.20000
    339.58,  2808.80000,  1192.60000
    340.06,  2826.90000,  1194.30000
    340.54,  2835.00000,  1199.10000
    341.03,  2822.80000,  1196.50000
    341.51,  2790.30000,  1193.00000
    341.99,  2784.90000,  1194.30000
    342.47,  2788.70000,  1186.90000
    342.95,  2782.80000,  1187.60000
    343.43,  2784.50000,  1189.80000
    343.91,  2787.70000,  1187.60000
    344.39,  2771.40000,  1184.50000
    344.87,  2749.70000,  1181.00000
    345.35,  2760.00000,  1177.90000
    345.84,  2763.90000,  1186.70000
    346.32,  2810.60000,  1190.60000
    346.80,  2828.60000,  1187.50000
    347.28,  2829.40000,  1182.20000
    347.76,  2798.90000,  1185.40000
    348.24,  2794.70000,  1191.20000
    348.72,  2818.60000,  1197.00000
    349.20,  2842.40000,  1205.40000
    349.68,  2825.60000,  1201.40000
    350.16,  2791.30000,  1192.50000
    350.64,  2750.20000,  1180.10000
    351.12,  2740.50000,  1163.80000
    351.60,  2806.30000,  1150.40000
    352.08,  2852.40000,  1153.40000
    352.56,  2872.70000,  1159.90000
    353.04,  2856.60000,  1171.10000
    353.53,  2832.70000,  1174.90000
    354.01,  2803.40000,  1181.20000
    354.49,  2819.00000,  1183.00000
    354.97,  2817.00000,  1189.90000
    355.45,  2812.50000,  1189.90000
    355.93,  2796.00000,  1175.10000
    356.41,  2814.10000,  1165.20000
    356.89,  2795.40000,  1159.60000
    357.37,  2802.70000,  1166.20000
    357.85,  2780.20000,  1177.70000
    358.33,  2772.30000,  1185.30000
    358.81,  2759.10000,  1178.60000
    359.29,  2779.20000,  1167.40000
    359.77,  2794.30000,  1158.70000
    360.25,  2808.50000,  1164.00000
    360.73,  2807.10000,  1159.20000
    361.21,  2797.10000,  1166.20000
    361.69,  2806.10000,  1173.50000
    362.17,  2808.90000,  1178.90000
    362.65,  2815.80000,  1188.70000
    363.13,  2818.00000,  1183.80000
    363.61,  2822.30000,  1177.30000
    364.09,  2791.50000,  1174.90000
    364.57,  2787.50000,  1176.40000
    365.05,  2785.00000,  1174.90000
    365.53,  2768.20000,  1182.30000
    366.01,  2789.20000,  1177.00000
    366.49,  2829.10000,  1179.10000
    366.97,  2791.90000,  1177.40000
    367.45,  2800.30000,  1182.80000
    367.93,  2826.50000,  1184.40000
    368.41,  2812.30000,  1193.50000
    368.89,  2816.90000,  1194.90000
    369.37,  2826.70000,  1197.60000
    369.85,  2774.20000,  1199.70000
    370.33,  2788.20000,  1206.20000
    370.80,  2807.70000,  1202.10000
    371.28,  2807.40000,  1197.30000
    371.76,  2790.40000,  1188.70000
    372.24,  2778.30000,  1188.90000
    372.72,  2773.90000,  1197.50000
    373.20,  2786.80000,  1209.40000
    373.68,  2807.00000,  1213.80000
    374.16,  2826.80000,  1219.20000
    374.64,  2811.80000,  1221.20000
    375.12,  2786.30000,  1223.60000
    375.60,  2818.40000,  1221.60000
    376.08,  2797.60000,  1222.10000
    376.56,  2790.50000,  1220.60000
    377.04,  2790.40000,  1213.60000
    377.52,  2793.70000,  1215.60000
    377.99,  2784.40000,  1217.90000
    378.47,  2811.10000,  1224.70000
    378.95,  2790.80000,  1236.80000
    379.43,  2807.30000,  1239.10000
    379.91,  2811.50000,  1241.00000
    380.39,  2855.90000,  1246.00000
    380.87,  2880.30000,  1247.50000
    381.35,  2872.30000,  1244.20000
    381.83,  2843.90000,  1231.80000
    382.31,  2812.30000,  1219.50000
    382.79,  2771.90000,  1223.40000
    383.26,  2785.50000,  1228.60000
    383.74,  2789.90000,  1245.10000
    384.22,  2789.50000,  1256.00000
    384.70,  2792.10000,  1259.70000
    385.18,  2765.90000,  1266.50000
    385.66,  2770.50000,  1264.80000
    386.14,  2778.40000,  1262.80000
    386.62,  2796.20000,  1264.90000
    387.09,  2815.40000,  1264.50000
    387.57,  2821.10000,  1273.10000
    388.05,  2818.50000,  1270.80000
    388.53,  2812.70000,  1267.40000
    389.01,  2814.40000,  1270.00000
    389.49,  2836.90000,  1266.10000
    389.97,  2836.40000,  1263.90000
    390.44,  2821.00000,  1280.40000
    390.92,  2805.70000,  1282.10000
    391.40,  2779.70000,  1288.50000
    391.88,  2778.70000,  1293.90000
    392.36,  2790.90000,  1290.00000
    392.84,  2789.10000,  1289.00000
    393.32,  2802.00000,  1288.80000
    393.79,  2795.70000,  1288.30000
    394.27,  2847.80000,  1291.10000
    394.75,  2850.80000,  1297.30000
    395.23,  2847.30000,  1302.40000
    395.71,  2821.70000,  1309.90000
    396.18,  2821.40000,  1316.10000
    396.66,  2825.40000,  1316.80000
    397.14,  2866.00000,  1307.20000
    397.62,  2831.20000,  1303.20000
    398.10,  2823.80000,  1297.60000
    398.58,  2807.40000,  1295.80000
    399.05,  2814.40000,  1304.50000
    399.53,  2828.30000,  1300.20000
    400.01,  2830.70000,  1294.30000
    400.49,  2801.10000,  1298.80000
    400.97,  2779.80000,  1295.00000
    401.44,  2752.20000,  1290.70000
    401.92,  2772.40000,  1299.60000
    402.40,  2776.50000,  1305.30000
    402.88,  2801.90000,  1311.30000
    403.36,  2815.40000,  1312.60000
    403.83,  2830.30000,  1306.70000
    404.31,  2800.10000,  1292.80000
    404.79,  2813.90000,  1288.00000
    405.27,  2787.70000,  1292.50000
    405.74,  2774.10000,  1288.10000
    406.22,  2797.20000,  1289.30000
    406.70,  2822.30000,  1297.20000
    407.18,  2806.20000,  1289.20000
    407.65,  2797.00000,  1283.20000
    408.13,  2760.40000,  1283.80000
    408.61,  2761.80000,  1273.90000
    409.09,  2777.80000,  1267.70000
    409.56,  2790.20000,  1264.80000
    410.04,  2804.10000,  1255.70000
    410.52,  2797.50000,  1256.20000
    411.00,  2775.40000,  1250.40000
    411.47,  2773.80000,  1253.60000
    411.95,  2760.10000,  1253.00000
    412.43,  2764.80000,  1248.60000
    412.91,  2762.40000,  1240.40000
    413.38,  2774.50000,  1239.50000
    413.86,  2790.00000,  1227.40000
    414.34,  2795.50000,  1227.00000
    414.82,  2803.30000,  1231.70000
    415.29,  2808.00000,  1233.30000
    415.77,  2811.20000,  1227.00000
    416.25,  2811.90000,  1214.60000
    416.72,  2818.00000,  1191.40000
    417.20,  2810.70000,  1174.70000
    417.68,  2771.50000,  1179.50000
    418.16,  2759.50000,  1193.30000
    418.63,  2777.60000,  1205.30000
    419.11,  2785.10000,  1195.50000
    419.59,  2803.70000,  1176.80000
    420.06,  2782.10000,  1156.30000
    420.54,  2742.40000,  1154.20000
    421.02,  2755.00000,  1172.80000
    421.50,  2779.00000,  1183.20000
    421.97,  2789.40000,  1192.10000
    422.45,  2790.40000,  1186.60000
    422.93,  2776.60000,  1181.30000
    423.40,  2756.90000,  1169.90000
    423.88,  2756.80000,  1169.90000
    424.36,  2762.90000,  1164.40000
    424.83,  2771.20000,  1166.40000
    425.31,  2796.50000,  1161.80000
    425.79,  2847.90000,  1160.40000
    426.26,  2885.90000,  1157.40000
    426.74,  2864.60000,  1151.20000
    427.22,  2846.80000,  1139.90000
    427.69,  2824.80000,  1136.40000
    428.17,  2797.60000,  1142.90000
    428.65,  2780.10000,  1148.70000
    429.12,  2811.10000,  1159.80000
    429.60,  2797.60000,  1156.20000
    430.08,  2817.90000,  1136.80000
    430.55,  2824.30000,  1131.40000
    431.03,  2824.10000,  1125.30000
    431.50,  2819.10000,  1127.00000
    431.98,  2816.60000,  1124.50000
    432.46,  2823.30000,  1127.90000
    432.93,  2804.20000,  1129.30000
    433.41,  2783.40000,  1137.50000
    433.89,  2782.60000,  1137.40000
    434.36,  2788.50000,  1137.10000
    434.84,  2780.10000,  1126.30000
    435.31,  2805.80000,  1118.50000
    435.79,  2800.20000,  1119.00000
    436.27,  2791.80000,  1124.40000
    436.74,  2783.50000,  1136.70000
    437.22,  2786.20000,  1140.50000
    437.70,  2780.50000,  1138.70000
    438.17,  2778.30000,  1130.90000
    438.65,  2776.40000,  1132.10000
    439.12,  2786.80000,  1120.70000
    439.60,  2789.10000,  1122.10000
    440.08,  2808.00000,  1117.00000
    440.55,  2795.60000,  1121.30000
    441.03,  2800.30000,  1133.20000
    441.50,  2792.50000,  1143.10000
    441.98,  2818.20000,  1125.50000
    442.45,  2815.30000,  1114.30000
    442.93,  2816.30000,  1103.30000
    443.41,  2796.90000,  1099.00000
    443.88,  2787.30000,  1112.30000
    444.36,  2765.80000,  1121.60000
    444.83,  2770.20000,  1120.10000
    445.31,  2773.90000,  1114.90000
    445.78,  2760.60000,  1110.60000
    446.26,  2761.00000,  1112.30000
    446.74,  2761.00000,  1116.60000
    447.21,  2778.10000,  1120.70000
    447.69,  2794.40000,  1124.90000
    448.16,  2818.40000,  1120.40000
    448.64,  2798.90000,  1118.80000
    449.11,  2778.20000,  1136.30000
    449.59,  2782.50000,  1141.40000
    450.06,  2784.80000,  1141.70000
    450.54,  2782.90000,  1142.30000
    451.02,  2811.00000,  1137.20000
    451.49,  2811.00000,  1135.90000
    451.97,  2803.40000,  1140.90000
    452.44,  2790.60000,  1148.10000
    452.92,  2784.50000,  1138.40000
    453.39,  2778.40000,  1126.20000
    453.87,  2795.30000,  1126.70000
    454.34,  2802.50000,  1119.80000
    454.82,  2804.10000,  1114.70000
    455.29,  2805.90000,  1122.70000
    455.77,  2815.20000,  1118.50000
    456.24,  2788.50000,  1118.60000
    456.72,  2768.70000,  1117.50000
    457.19,  2764.30000,  1110.40000
    457.67,  2777.20000,  1102.40000
    458.14,  2809.60000,  1105.60000
    458.62,  2812.70000,  1117.80000
    459.09,  2799.30000,  1132.10000
    459.57,  2779.60000,  1130.40000
    460.04,  2782.50000,  1134.40000
    460.52,  2787.10000,  1125.10000
    460.99,  2774.90000,  1124.80000
    461.47,  2762.50000,  1124.80000
    461.94,  2738.10000,  1124.70000
    462.42,  2738.00000,  1125.40000
    462.89,  2766.60000,  1125.20000
    463.37,  2793.00000,  1123.10000
    463.84,  2795.40000,  1129.10000
    464.32,  2799.80000,  1128.60000
    464.79,  2789.20000,  1136.10000
    465.26,  2794.20000,  1143.30000
    465.74,  2782.20000,  1139.40000
    466.21,  2806.70000,  1135.40000
    466.69,  2815.00000,  1128.90000
    467.16,  2819.80000,  1119.40000
    467.64,  2804.10000,  1118.30000
    468.11,  2785.80000,  1128.60000
    468.59,  2772.50000,  1129.70000
    469.06,  2793.10000,  1128.30000
    469.54,  2816.50000,  1127.70000
    470.01,  2819.40000,  1121.20000
    470.48,  2777.70000,  1117.90000
    470.96,  2788.10000,  1130.70000
    471.43,  2814.80000,  1133.10000
    471.91,  2839.20000,  1136.20000
    472.38,  2867.80000,  1146.30000
    472.86,  2843.10000,  1140.80000
    473.33,  2791.90000,  1127.30000
    473.80,  2786.50000,  1121.70000
    474.28,  2793.50000,  1120.90000
    474.75,  2801.50000,  1121.60000
    475.23,  2832.90000,  1123.60000
    475.70,  2829.90000,  1120.80000
    476.17,  2808.20000,  1116.60000
    476.65,  2802.70000,  1119.80000
    477.12,  2803.90000,  1124.10000
    477.60,  2766.90000,  1134.80000
    478.07,  2777.70000,  1135.50000
    478.54,  2792.30000,  1129.20000
    479.02,  2795.80000,  1130.70000
    479.49,  2819.50000,  1123.50000
    479.97,  2830.10000,  1116.80000
    480.44,  2813.50000,  1119.10000
    480.91,  2796.00000,  1119.60000
    481.39,  2787.40000,  1116.90000
    481.86,  2779.50000,  1127.60000
    482.34,  2763.00000,  1127.30000
    482.81,  2774.00000,  1127.10000
    483.28,  2798.20000,  1128.20000
    483.76,  2789.70000,  1139.60000
    484.23,  2806.80000,  1146.20000
    484.70,  2788.50000,  1157.60000
    485.18,  2786.30000,  1147.30000
    485.65,  2790.20000,  1134.90000
    486.12,  2805.20000,  1121.50000
    486.60,  2791.20000,  1121.30000
    487.07,  2798.30000,  1120.20000
    487.55,  2811.60000,  1140.20000
    488.02,  2839.10000,  1136.10000
    488.49,  2833.50000,  1132.80000
    488.97,  2846.10000,  1130.50000
    489.44,  2834.60000,  1124.20000
    489.91,  2795.80000,  1119.20000
    490.39,  2783.30000,  1132.50000
    490.86,  2746.40000,  1133.20000
    491.33,  2710.10000,  1132.70000
    491.81,  2745.20000,  1144.00000
    492.28,  2788.70000,  1141.10000
    492.75,  2780.10000,  1143.20000
    493.23,  2829.70000,  1142.30000
    493.70,  2850.80000,  1132.20000
    494.17,  2844.80000,  1129.90000
    494.64,  2845.20000,  1125.90000
    495.12,  2811.40000,  1131.10000
    495.59,  2812.40000,  1130.90000
    496.06,  2846.90000,  1129.30000
    496.54,  2863.20000,  1121.50000
    497.01,  2833.70000,  1125.20000
    497.48,  2814.00000,  1123.00000
    497.96,  2782.90000,  1128.40000
    498.43,  2813.80000,  1126.80000
    498.90,  2823.20000,  1118.50000
    499.37,  2847.90000,  1117.90000
    499.85,  2821.90000,  1117.30000
    500.32,  2818.50000,  1117.20000
    500.79,  2801.30000,  1111.40000
    501.27,  2807.30000,  1113.70000
    501.74,  2802.10000,  1103.40000
    502.21,  2796.20000,  1118.20000
    502.68,  2783.30000,  1118.50000
    503.16,  2766.30000,  1124.80000
    503.63,  2760.40000,  1119.00000
    504.10,  2778.80000,  1118.60000
    504.57,  2772.50000,  1114.30000
    505.05,  2786.50000,  1123.50000
    505.52,  2814.10000,  1115.20000
    505.99,  2806.70000,  1112.80000
    506.46,  2799.90000,  1111.90000
    506.94,  2786.10000,  1116.40000
    507.41,  2771.30000,  1113.40000
    507.88,  2780.20000,  1102.30000
    508.35,  2785.50000,  1098.60000
    508.83,  2777.50000,  1095.10000
    509.30,  2797.80000,  1108.10000
    509.77,  2801.80000,  1116.20000
    510.24,  2797.90000,  1122.50000
    510.72,  2782.90000,  1114.70000
    511.19,  2770.00000,  1109.90000
    511.66,  2770.20000,  1101.90000
    512.13,  2796.60000,  1102.50000
    512.60,  2790.70000,  1094.00000
    513.08,  2780.50000,  1098.50000
    513.55,  2774.50000,  1098.80000
    514.02,  2765.40000,  1091.90000
    514.49,  2768.00000,  1092.80000
    514.97,  2778.40000,  1098.70000
    515.44,  2785.30000,  1102.40000
    515.91,  2778.70000,  1107.30000
    516.38,  2781.60000,  1109.10000
    516.85,  2744.60000,  1102.70000
    517.33,  2725.60000,  1095.30000
    517.80,  2729.20000,  1098.90000
    518.27,  2756.30000,  1099.00000
    518.74,  2800.80000,  1100.70000
    519.21,  2831.00000,  1099.60000
    519.68,  2810.80000,  1091.30000
    520.16,  2782.80000,  1091.20000
    520.63,  2756.70000,  1113.60000
    521.10,  2754.70000,  1114.20000
    521.57,  2780.50000,  1118.80000
    522.04,  2785.80000,  1112.80000
    522.52,  2786.20000,  1095.90000
    522.99,  2772.50000,  1088.70000
    523.46,  2782.20000,  1102.00000
    523.93,  2797.00000,  1096.80000
    524.40,  2828.50000,  1098.00000
    524.87,  2816.20000,  1109.20000
    525.34,  2801.80000,  1110.20000
    525.82,  2782.70000,  1113.00000
    526.29,  2786.30000,  1115.10000
    526.76,  2787.70000,  1101.50000
    527.23,  2809.00000,  1086.80000
    527.70,  2788.50000,  1090.50000
    528.17,  2781.10000,  1095.80000
    528.64,  2767.40000,  1116.20000
    529.12,  2772.40000,  1120.20000
    529.59,  2774.80000,  1119.20000
    530.06,  2779.90000,  1115.80000
    530.53,  2811.80000,  1110.80000
    531.00,  2789.00000,  1107.20000
    531.47,  2745.60000,  1111.10000
    531.94,  2740.70000,  1108.80000
    532.41,  2734.00000,  1120.10000
    532.89,  2755.90000,  1122.50000
    533.36,  2816.60000,  1120.80000
    533.83,  2801.90000,  1120.90000
    534.30,  2789.10000,  1115.70000
    534.77,  2795.30000,  1123.40000
    535.24,  2802.40000,  1130.00000
    535.71,  2796.40000,  1131.50000
    536.18,  2808.40000,  1134.20000
    536.65,  2796.30000,  1144.70000
    537.13,  2773.30000,  1144.30000
    537.60,  2748.80000,  1151.50000
    538.07,  2761.30000,  1147.70000
    538.54,  2746.10000,  1150.20000
    539.01,  2765.80000,  1151.70000
    539.48,  2804.30000,  1155.10000
    539.95,  2808.50000,  1174.80000
    540.42,  2812.90000,  1189.70000
    540.89,  2801.80000,  1198.90000
    541.36,  2779.20000,  1191.10000
    541.83,  2775.10000,  1185.40000
    542.30,  2781.20000,  1166.70000
    542.77,  2784.40000,  1174.40000
    543.25,  2810.70000,  1179.30000
    543.72,  2806.70000,  1188.00000
    544.19,  2806.90000,  1187.30000
    544.66,  2789.40000,  1185.80000
    545.13,  2768.80000,  1186.00000
    545.60,  2750.40000,  1183.80000
    546.07,  2781.90000,  1180.30000
    546.54,  2793.20000,  1191.20000
    547.01,  2800.20000,  1205.10000
    547.48,  2807.30000,  1214.50000
    547.95,  2787.70000,  1234.20000
    548.42,  2763.60000,  1241.10000
    548.89,  2794.90000,  1237.50000
    549.36,  2778.50000,  1242.80000
    549.83,  2760.70000,  1238.60000
    550.30,  2815.10000,  1232.90000
    550.77,  2816.80000,  1220.70000
    551.24,  2824.10000,  1222.60000
    551.71,  2847.80000,  1225.80000
    552.18,  2808.80000,  1247.50000
    552.65,  2756.40000,  1251.40000
    553.12,  2785.60000,  1254.00000
    553.59,  2790.90000,  1248.50000
    554.06,  2794.80000,  1244.10000
    554.53,  2811.50000,  1249.30000
    555.00,  2791.80000,  1259.50000
    555.47,  2783.30000,  1255.80000
    555.94,  2782.00000,  1255.80000
    556.41,  2781.30000,  1261.80000
    556.88,  2759.60000,  1263.20000
    557.35,  2758.00000,  1267.00000
    557.82,  2745.90000,  1274.10000
    558.29,  2765.80000,  1268.10000
    558.76,  2810.20000,  1266.80000
    559.23,  2826.70000,  1266.20000
    559.70,  2819.60000,  1269.60000
    560.17,  2802.90000,  1271.60000
    560.64,  2789.50000,  1281.00000
    561.11,  2776.80000,  1282.40000
    561.58,  2806.90000,  1288.30000
    562.05,  2796.10000,  1286.30000
    562.52,  2802.10000,  1295.50000
    562.99,  2795.30000,  1292.10000
    563.46,  2799.90000,  1290.50000
    563.93,  2786.10000,  1295.80000
    564.40,  2789.50000,  1297.50000
    564.87,  2793.80000,  1301.30000
    565.34,  2819.50000,  1303.00000
    565.81,  2810.80000,  1294.60000
    566.28,  2802.80000,  1294.70000
    566.74,  2775.90000,  1296.80000
    567.21,  2769.40000,  1287.00000
    567.68,  2781.40000,  1288.00000
    568.15,  2787.10000,  1282.20000
    568.62,  2779.20000,  1289.00000
    569.09,  2772.50000,  1297.90000
    569.56,  2753.00000,  1311.00000
    570.03,  2758.80000,  1299.50000
    570.50,  2793.60000,  1291.40000
    570.97,  2797.90000,  1284.50000
    571.44,  2794.60000,  1287.30000
    571.91,  2801.60000,  1282.80000
    572.38,  2786.80000,  1289.10000
    572.84,  2771.20000,  1287.20000
    573.31,  2786.60000,  1284.50000
    573.78,  2779.10000,  1290.60000
    574.25,  2775.70000,  1294.90000
    574.72,  2796.50000,  1289.70000
    575.19,  2790.40000,  1290.40000
    575.66,  2780.20000,  1295.00000
    576.13,  2770.50000,  1295.10000
    576.60,  2772.60000,  1296.70000
    577.07,  2802.40000,  1289.30000
    577.53,  2829.60000,  1282.40000
    578.00,  2830.40000,  1282.20000
    578.47,  2817.50000,  1280.60000
    578.94,  2788.80000,  1281.30000
    579.41,  2765.70000,  1271.90000
    579.88,  2789.50000,  1263.80000
    580.35,  2788.90000,  1268.40000
    580.82,  2789.60000,  1278.80000
    581.28,  2803.70000,  1287.50000
    581.75,  2799.30000,  1300.30000
    582.22,  2797.20000,  1293.30000
    582.69,  2812.30000,  1287.50000
    583.16,  2809.80000,  1281.10000
    583.63,  2802.10000,  1273.50000
    584.10,  2828.30000,  1271.50000
    584.56,  2837.60000,  1269.70000
    585.03,  2828.10000,  1268.10000
    585.50,  2816.90000,  1270.10000
    585.97,  2785.60000,  1272.60000
    586.44,  2778.40000,  1275.50000
    586.91,  2795.40000,  1279.60000
    587.37,  2796.60000,  1276.30000
    587.84,  2778.00000,  1281.70000
    588.31,  2762.60000,  1286.20000
    588.78,  2731.30000,  1288.40000
    589.25,  2764.00000,  1280.90000
    589.72,  2767.00000,  1270.00000
    590.18,  2797.30000,  1260.60000
    590.65,  2821.40000,  1265.60000
    591.12,  2806.90000,  1280.10000
    591.59,  2804.40000,  1281.50000
    592.06,  2790.60000,  1280.00000
    592.52,  2750.70000,  1264.20000
    592.99,  2762.40000,  1259.50000
    593.46,  2757.20000,  1260.60000
    593.93,  2715.70000,  1267.10000
    594.40,  2741.70000,  1266.30000
    594.86,  2769.30000,  1274.20000
    595.33,  2791.00000,  1262.30000
    595.80,  2814.60000,  1261.90000
    596.27,  2814.10000,  1260.80000
    596.74,  2786.70000,  1266.70000
    597.20,  2771.50000,  1277.00000
    597.67,  2785.50000,  1273.60000
    598.14,  2771.90000,  1262.10000
    598.61,  2773.60000,  1252.10000
    599.07,  2774.90000,  1258.20000
    599.54,  2761.50000,  1266.80000
    600.01,  2750.50000,  1263.90000
    600.48,  2812.40000,  1244.90000
    600.95,  2836.50000,  1236.10000
    601.41,  2848.30000,  1229.80000
    601.88,  2823.70000,  1249.50000
    602.35,  2761.00000,  1263.70000
    602.82,  2714.70000,  1256.80000
    603.28,  2741.70000,  1244.20000
    603.75,  2739.10000,  1248.20000
    604.22,  2763.70000,  1244.70000
    604.69,  2773.70000,  1246.90000
    605.15,  2776.10000,  1250.50000
    605.62,  2770.90000,  1238.20000
    606.09,  2779.10000,  1224.40000
    606.56,  2761.50000,  1223.40000
    607.02,  2763.10000,  1223.30000
    607.49,  2758.60000,  1223.60000
    607.96,  2776.90000,  1225.20000
    608.42,  2770.40000,  1234.20000
    608.89,  2820.10000,  1231.60000
    609.36,  2832.30000,  1221.30000
    609.83,  2816.20000,  1215.10000
    610.29,  2786.30000,  1209.50000
    610.76,  2763.90000,  1196.60000
    611.23,  2747.90000,  1202.20000
    611.69,  2782.00000,  1194.00000
    612.16,  2784.20000,  1191.80000
    612.63,  2780.80000,  1196.30000
    613.10,  2765.20000,  1198.90000
    613.56,  2743.50000,  1194.40000
    614.03,  2749.20000,  1196.50000
    614.50,  2758.60000,  1198.10000
    614.96,  2768.70000,  1195.30000
    615.43,  2779.50000,  1190.80000
    615.90,  2796.40000,  1180.90000
    616.36,  2797.00000,  1164.20000
    616.83,  2785.90000,  1155.10000
    617.30,  2780.60000,  1155.00000
    617.76,  2759.80000,  1145.80000
    618.23,  2742.70000,  1144.00000
    618.70,  2732.00000,  1154.40000
    619.16,  2743.80000,  1155.50000
    619.63,  2740.70000,  1154.10000
    620.10,  2742.70000,  1156.30000
    620.56,  2744.40000,  1146.70000
    621.03,  2769.90000,  1143.50000
    621.50,  2770.90000,  1148.10000
    621.96,  2781.40000,  1148.20000
    622.43,  2781.50000,  1141.00000
    622.90,  2784.50000,  1135.70000
    623.36,  2796.20000,  1119.00000
    623.83,  2805.30000,  1118.10000
    624.30,  2796.50000,  1114.00000
    624.76,  2793.50000,  1115.80000
    625.23,  2795.20000,  1117.60000
    625.70,  2803.20000,  1115.20000
    626.16,  2800.80000,  1103.40000
    626.63,  2772.80000,  1102.50000
    627.09,  2770.40000,  1092.60000
    627.56,  2783.50000,  1096.70000
    628.03,  2783.40000,  1095.80000
    628.49,  2790.80000,  1096.00000
    628.96,  2769.60000,  1094.10000
    629.43,  2757.40000,  1100.90000
    629.89,  2749.30000,  1106.00000
    630.36,  2756.00000,  1117.50000
    630.82,  2754.20000,  1105.70000
    631.29,  2763.50000,  1092.00000
    631.76,  2751.10000,  1076.60000
    632.22,  2741.40000,  1068.60000
    632.69,  2745.90000,  1070.80000
    633.15,  2758.90000,  1084.20000
    633.62,  2783.90000,  1089.10000
    634.09,  2801.90000,  1084.90000
    634.55,  2802.40000,  1081.70000
    635.02,  2783.10000,  1065.40000
    635.48,  2774.40000,  1059.50000
    635.95,  2758.70000,  1057.50000
    636.42,  2763.60000,  1056.20000
    636.88,  2755.80000,  1050.20000
    637.35,  2753.20000,  1059.50000
    637.81,  2774.10000,  1054.20000
    638.28,  2780.30000,  1060.40000
    638.74,  2797.00000,  1054.60000
    639.21,  2804.60000,  1049.10000
    639.68,  2782.00000,  1042.80000
    640.14,  2753.80000,  1041.80000
    640.61,  2761.90000,  1041.90000
    641.07,  2738.50000,  1047.40000
    641.54,  2756.00000,  1047.90000
    642.00,  2768.80000,  1052.00000
    642.47,  2784.40000,  1051.60000
    642.93,  2789.80000,  1043.90000
    643.40,  2789.00000,  1042.10000
    643.87,  2770.50000,  1033.50000
    644.33,  2769.60000,  1027.70000
    644.80,  2769.80000,  1031.60000
    645.26,  2763.60000,  1017.40000
    645.73,  2759.40000,  1013.50000
    646.19,  2758.00000,  1012.50000
    646.66,  2761.50000,  1009.60000
    647.12,  2756.10000,  1007.10000
    647.59,  2763.30000,  1018.40000
    648.05,  2779.70000,  1006.90000
    648.52,  2765.90000,  1011.00000
    648.98,  2755.50000,  1018.00000
    649.45,  2732.50000,  1028.40000
    649.91,  2711.90000,  1026.30000
    650.38,  2715.70000,  1029.20000
    650.84,  2776.30000,  1012.20000
    651.31,  2772.40000,  1000.20000
    651.77,  2770.70000,   998.60000
    652.24,  2742.70000,  1005.60000
    652.70,  2726.20000,   999.70000
    653.17,  2714.50000,  1010.20000
    653.63,  2749.40000,  1007.50000
    654.10,  2740.30000,  1016.10000
    654.56,  2753.70000,  1015.10000
    655.03,  2750.70000,  1010.50000
    655.49,  2760.60000,   996.50000
    655.96,  2752.10000,  1001.60000
    656.42,  2741.00000,   994.30000
    656.89,  2728.30000,  1000.00000
    657.35,  2783.30000,   996.10000
    657.82,  2827.10000,   996.40000
    658.28,  2866.40000,   987.00000
    658.75,  2883.40000,   973.90000
    659.21,  2844.30000,   971.50000
    659.68,  2816.10000,   975.50000
    660.14,  2810.30000,   969.50000
    660.61,  2767.20000,   978.10000
    661.07,  2791.40000,   978.80000
    661.53,  2809.30000,   959.30000
    662.00,  2822.90000,   970.00000
    662.46,  2816.40000,   972.80000
    662.93,  2800.70000,   974.10000
    663.39,  2763.90000,   981.30000
    663.86,  2785.30000,   989.30000
    664.32,  2783.00000,   980.70000
    664.79,  2807.10000,   979.20000
    665.25,  2800.00000,   961.70000
    665.71,  2781.20000,   957.50000
    666.18,  2749.50000,   947.30000
    666.64,  2769.10000,   949.40000
    667.11,  2761.30000,   955.00000
    667.57,  2779.40000,   957.30000
    668.04,  2797.30000,   954.00000
    668.50,  2787.90000,   956.90000
    668.96,  2773.20000,   944.40000
    669.43,  2796.70000,   939.00000
    669.89,  2773.00000,   933.30000
    670.36,  2753.40000,   931.40000
    670.82,  2750.30000,   934.20000
    671.28,  2754.80000,   938.30000
    671.75,  2763.00000,   931.70000
    672.21,  2792.30000,   928.40000
    672.68,  2792.30000,   930.80000
    673.14,  2797.40000,   939.30000
    673.60,  2811.70000,   941.50000
    674.07,  2792.40000,   933.60000
    674.53,  2762.30000,   925.50000
    675.00,  2754.90000,   923.80000
    675.46,  2743.10000,   920.50000
    675.92,  2740.50000,   923.30000
    676.39,  2778.90000,   917.00000
    676.85,  2783.30000,   904.00000
    677.31,  2795.30000,   897.30000
    677.78,  2796.90000,   905.40000
    678.24,  2786.60000,   898.20000
    678.70,  2758.80000,   909.70000
    679.17,  2743.50000,   906.70000
    679.63,  2715.00000,   905.70000
    680.10,  2721.80000,   901.60000
    680.56,  2741.50000,   906.70000
    681.02,  2748.60000,   902.20000
    681.49,  2784.20000,   899.90000
    681.95,  2786.50000,   892.00000
    682.41,  2770.90000,   895.10000
    682.88,  2761.50000,   880.80000
    683.34,  2749.10000,   880.80000
    683.80,  2727.50000,   879.80000
    684.27,  2758.30000,   872.30000
    684.73,  2763.70000,   870.60000
    685.19,  2783.70000,   877.50000
    685.66,  2815.90000,   864.90000
    686.12,  2815.10000,   861.90000
    686.58,  2832.40000,   862.40000
    687.05,  2828.30000,   865.20000
    687.51,  2805.10000,   856.70000
    687.97,  2785.50000,   860.50000
    688.44,  2787.30000,   861.80000
    688.90,  2780.50000,   862.30000
    689.36,  2788.40000,   860.50000
    689.83,  2787.40000,   863.20000
    690.29,  2797.70000,   855.10000
    690.75,  2803.20000,   855.10000
    691.21,  2811.30000,   862.10000
    691.68,  2801.90000,   854.70000
    692.14,  2773.00000,   854.90000
    692.60,  2782.80000,   846.20000
    693.07,  2763.20000,   844.90000
    693.53,  2776.00000,   845.40000
    693.99,  2789.10000,   852.90000
    694.45,  2790.50000,   856.10000
    694.92,  2798.00000,   867.70000
    695.38,  2822.50000,   845.70000
    695.84,  2805.80000,   836.80000
    696.31,  2791.30000,   832.70000
    696.77,  2800.90000,   828.80000
    697.23,  2790.20000,   834.00000
    697.69,  2787.80000,   837.00000
    698.16,  2777.40000,   823.70000
    698.62,  2761.80000,   823.50000
    699.08,  2737.60000,   827.80000
    699.54,  2741.90000,   830.80000
    700.01,  2735.80000,   829.10000
    700.47,  2728.60000,   822.70000
    700.93,  2729.90000,   822.10000
    701.39,  2740.70000,   816.80000
    701.86,  2755.70000,   809.60000
    702.32,  2751.10000,   816.40000
    702.78,  2758.70000,   815.10000
    703.24,  2749.20000,   822.00000
    703.71,  2750.50000,   834.50000
    704.17,  2763.30000,   833.10000
    704.63,  2761.00000,   820.60000
    705.09,  2750.30000,   816.60000
    705.56,  2787.90000,   798.30000
    706.02,  2784.90000,   801.40000
    706.48,  2765.60000,   808.80000
    706.94,  2764.90000,   812.20000
    707.40,  2743.80000,   806.60000
    707.87,  2744.90000,   806.90000
    708.33,  2764.70000,   800.80000
    708.79,  2744.00000,   805.40000
    709.25,  2712.00000,   803.90000
    709.72,  2726.20000,   797.60000
    710.18,  2747.80000,   790.80000
    710.64,  2757.30000,   784.30000
    711.10,  2753.00000,   783.70000
    711.56,  2763.70000,   782.20000
    712.03,  2777.40000,   778.20000
    712.49,  2800.20000,   782.50000
    712.95,  2819.00000,   786.70000
    713.41,  2805.90000,   779.20000
    713.87,  2796.50000,   774.70000
    714.33,  2795.90000,   772.10000
    714.80,  2787.60000,   768.00000
    715.26,  2738.60000,   772.80000
    715.72,  2729.70000,   774.70000
    716.18,  2724.60000,   774.60000
    716.64,  2738.30000,   779.10000
    717.11,  2740.30000,   789.50000
    717.57,  2747.60000,   784.30000
    718.03,  2717.20000,   788.20000
    718.49,  2732.00000,   783.40000
    718.95,  2773.20000,   780.90000
    719.41,  2780.80000,   781.40000
    719.87,  2748.10000,   787.40000
    720.34,  2747.60000,   779.80000
    720.80,  2741.00000,   773.00000
    721.26,  2737.90000,   765.70000
    721.72,  2766.30000,   766.00000
    722.18,  2746.90000,   778.80000
    722.64,  2718.40000,   780.40000
    723.10,  2733.90000,   771.40000
    723.57,  2754.30000,   754.10000
    724.03,  2767.90000,   748.20000
    724.49,  2767.30000,   751.80000
    724.95,  2721.20000,   769.40000
    725.41,  2777.80000,   767.50000
    725.87,  2824.70000,   762.80000
    726.33,  2849.10000,   758.30000
    726.80,  2857.10000,   760.00000
    727.26,  2812.90000,   763.30000
    727.72,  2728.60000,   761.80000
    728.18,  2738.70000,   755.10000
    728.64,  2736.50000,   748.80000
    729.10,  2745.50000,   747.00000
    729.56,  2763.10000,   754.00000
    730.02,  2786.20000,   760.80000
    730.48,  2784.20000,   766.20000
    730.94,  2766.40000,   774.60000
    731.41,  2761.00000,   770.00000
    731.87,  2731.90000,   763.00000
    732.33,  2707.30000,   762.40000
    732.79,  2739.00000,   756.40000
    733.25,  2741.40000,   761.00000
    733.71,  2748.90000,   762.50000
    734.17,  2777.60000,   751.00000
    734.63,  2758.10000,   746.70000
    735.09,  2738.10000,   753.10000
    735.55,  2738.10000,   754.30000
    736.01,  2721.60000,   759.80000
    736.47,  2726.00000,   756.50000
    736.94,  2735.60000,   747.90000
    737.40,  2750.70000,   739.30000
    737.86,  2752.70000,   740.80000
    738.32,  2764.00000,   740.60000
    738.78,  2776.00000,   738.50000
    739.24,  2769.50000,   733.30000
    739.70,  2757.40000,   735.50000
    740.16,  2777.40000,   742.00000
    740.62,  2782.30000,   749.80000
    741.08,  2802.30000,   755.10000
    741.54,  2798.80000,   750.40000
    742.00,  2779.50000,   743.00000
    742.46,  2744.20000,   736.60000
    742.92,  2712.80000,   738.90000
    743.38,  2713.40000,   738.10000
    743.84,  2717.00000,   741.70000
    744.30,  2736.50000,   740.80000
    744.76,  2749.60000,   739.60000
    745.22,  2749.90000,   733.30000
    745.68,  2731.40000,   727.30000
    746.14,  2731.20000,   720.40000
    746.60,  2737.50000,   717.50000
    747.06,  2753.00000,   714.80000
    747.52,  2739.50000,   717.90000
    747.98,  2758.90000,   719.50000
    748.44,  2765.00000,   725.50000
    748.90,  2756.40000,   728.90000
    749.36,  2760.80000,   733.30000
    749.82,  2771.70000,   732.90000
    750.28,  2775.30000,   735.30000
    750.74,  2790.90000,   743.90000
    751.20,  2796.40000,   746.80000
    751.66,  2773.10000,   746.30000
    752.12,  2756.30000,   740.00000
    752.58,  2761.70000,   731.70000
    753.04,  2771.00000,   730.50000
    753.50,  2789.20000,   738.30000
    753.96,  2772.80000,   737.60000
    754.42,  2739.20000,   736.10000
    754.88,  2721.60000,   724.80000
    755.34,  2720.90000,   723.80000
    755.80,  2744.80000,   727.50000
    756.26,  2762.20000,   729.40000
    756.72,  2763.30000,   732.00000
    757.18,  2762.30000,   733.90000
    757.64,  2755.10000,   735.00000
    758.10,  2727.30000,   743.70000
    758.56,  2711.90000,   742.30000
    759.02,  2714.00000,   743.50000
    759.48,  2720.60000,   739.20000
    759.94,  2734.50000,   740.40000
    760.40,  2738.90000,   744.30000
    760.86,  2732.00000,   746.80000
    761.32,  2741.50000,   738.60000
    761.78,  2776.80000,   730.30000
    762.24,  2763.10000,   729.30000
    762.70,  2767.30000,   727.70000
    763.15,  2746.00000,   733.50000
    763.61,  2739.50000,   743.20000
    764.07,  2751.30000,   747.10000
    764.53,  2758.20000,   737.80000
    764.99,  2755.80000,   743.30000
    765.45,  2773.10000,   739.10000
    765.91,  2756.50000,   742.30000
    766.37,  2747.00000,   741.10000
    766.83,  2728.10000,   734.60000
    767.29,  2736.70000,   725.50000
    767.75,  2738.30000,   730.40000
    768.21,  2756.70000,   734.90000
    768.66,  2766.20000,   735.00000
    769.12,  2770.50000,   736.20000
    769.58,  2744.60000,   727.90000
    770.04,  2730.90000,   726.40000
    770.50,  2698.20000,   730.20000
    770.96,  2685.50000,   734.70000
    771.42,  2716.40000,   732.50000
    771.88,  2734.00000,   747.50000
    772.34,  2746.90000,   744.50000
    772.80,  2738.10000,   746.90000
    773.25,  2723.30000,   737.80000
    773.71,  2718.90000,   729.40000
    774.17,  2708.50000,   724.00000
    774.63,  2718.60000,   734.20000
    775.09,  2724.60000,   742.70000
    775.55,  2709.10000,   746.80000
    776.01,  2683.50000,   745.30000
    776.47,  2691.70000,   734.30000
    776.92,  2673.00000,   730.60000
    777.38,  2705.90000,   733.10000
    777.84,  2718.50000,   732.50000
    778.30,  2713.70000,   731.30000
    778.76,  2694.00000,   743.80000
    779.22,  2715.10000,   740.90000
    779.68,  2713.30000,   743.30000
    780.13,  2725.30000,   743.20000
    780.59,  2718.50000,   730.00000
    781.05,  2706.20000,   722.20000
    781.51,  2713.90000,   726.40000
    781.97,  2736.30000,   728.30000
    782.43,  2745.60000,   732.50000
    782.88,  2754.30000,   746.40000
    783.34,  2743.60000,   748.20000
    783.80,  2737.40000,   749.30000
    784.26,  2758.30000,   737.50000
    784.72,  2746.40000,   726.90000
    785.18,  2738.80000,   716.30000
    785.63,  2726.80000,   719.30000
    786.09,  2740.50000,   730.00000
    786.55,  2774.60000,   737.30000
    787.01,  2798.10000,   736.10000
    787.47,  2769.50000,   736.20000
    787.92,  2738.10000,   730.70000
    788.38,  2709.50000,   721.30000
    788.84,  2694.30000,   718.40000
    789.30,  2708.80000,   720.70000
    789.76,  2720.20000,   726.60000
    790.21,  2719.30000,   734.50000
    790.67,  2708.00000,   741.60000
    791.13,  2711.80000,   738.30000
    791.59,  2696.30000,   728.50000
    792.05,  2693.60000,   738.40000
    792.50,  2711.20000,   734.70000
    792.96,  2724.10000,   745.70000
    793.42,  2698.70000,   743.40000
    793.88,  2712.10000,   733.10000
    794.33,  2697.10000,   717.40000
    794.79,  2702.00000,   717.30000
    795.25,  2715.80000,   712.60000
    795.71,  2722.40000,   729.20000
    796.17,  2723.10000,   727.40000
    796.62,  2729.10000,   728.80000
    797.08,  2702.70000,   726.30000
    797.54,  2702.40000,   727.70000
    798.00,  2691.20000,   728.20000
    798.45,  2699.60000,   731.40000
    798.91,  2714.40000,   721.80000
    799.37,  2718.40000,   729.60000
    799.83,  2709.40000,   738.60000
    800.28,  2693.70000,   734.80000
    800.74,  2680.90000,   736.30000
    801.20,  2706.60000,   731.20000
    801.66,  2695.70000,   720.10000
    802.11,  2709.50000,   720.10000
    802.57,  2724.00000,   722.70000
    803.03,  2702.70000,   719.20000
    803.48,  2680.40000,   719.80000
    803.94,  2733.00000,   721.30000
    804.40,  2745.50000,   719.10000
    804.86,  2770.80000,   708.50000
    805.31,  2765.10000,   701.20000
    805.77,  2726.30000,   696.90000
    806.23,  2670.90000,   706.80000
    806.69,  2703.80000,   710.70000
    807.14,  2709.00000,   715.90000
    807.60,  2725.50000,   708.30000
    808.06,  2730.10000,   697.50000
    808.51,  2727.50000,   693.50000
    808.97,  2691.90000,   708.50000
    809.43,  2696.90000,   710.90000
    809.88,  2697.30000,   720.60000
    810.34,  2689.50000,   721.80000
    810.80,  2707.70000,   727.00000
    811.26,  2722.90000,   723.90000
    811.71,  2706.90000,   721.60000
    812.17,  2726.70000,   715.80000
    812.63,  2725.00000,   714.20000
    813.08,  2700.90000,   704.00000
    813.54,  2702.30000,   712.50000
    814.00,  2716.50000,   704.70000
    814.45,  2713.50000,   699.30000
    814.91,  2730.50000,   704.70000
    815.37,  2714.00000,   706.10000
    815.82,  2706.20000,   695.40000
    816.28,  2695.30000,   697.00000
    816.74,  2705.00000,   692.40000
    817.19,  2679.40000,   689.20000
    817.65,  2687.10000,   699.90000
    818.11,  2703.00000,   703.30000
    818.56,  2713.50000,   699.50000
    819.02,  2703.00000,   696.40000
    819.48,  2707.40000,   694.10000
    819.93,  2668.80000,   695.80000
    820.39,  2683.10000,   701.00000
    820.84,  2717.60000,   706.30000
    821.30,  2730.60000,   713.80000
    821.76,  2733.60000,   713.80000
    822.21,  2741.70000,   711.90000
    822.67,  2718.10000,   704.50000
    823.13,  2678.10000,   692.90000
    823.58,  2708.70000,   683.70000
    824.04,  2730.90000,   681.00000
    824.49,  2733.00000,   678.40000
    824.95,  2745.10000,   688.00000
    825.41,  2747.70000,   699.40000
    825.86,  2720.00000,   702.10000
    826.32,  2747.00000,   694.40000
    826.78,  2731.30000,   677.10000
    827.23,  2706.80000,   659.90000
    827.69,  2690.80000,   658.70000
    828.14,  2690.60000,   671.30000
    828.60,  2709.10000,   680.70000
    829.06,  2725.40000,   680.70000
    829.51,  2714.30000,   681.20000
    829.97,  2727.80000,   668.80000
    830.42,  2725.90000,   669.90000
    830.88,  2709.40000,   676.30000
    831.34,  2705.10000,   676.70000
    831.79,  2723.50000,   670.20000
    832.25,  2722.70000,   667.90000
    832.70,  2717.00000,   659.70000
    833.16,  2721.10000,   660.10000
    833.61,  2712.30000,   663.90000
    834.07,  2706.10000,   670.30000
    834.53,  2710.00000,   667.60000
    834.98,  2702.60000,   669.90000
    835.44,  2686.50000,   661.00000
    835.89,  2697.40000,   655.50000
    836.35,  2717.50000,   650.50000
    836.80,  2744.00000,   644.90000
    837.26,  2725.50000,   645.80000
    837.71,  2700.20000,   654.90000
    838.17,  2686.80000,   655.90000
    838.63,  2671.30000,   665.40000
    839.08,  2673.50000,   663.50000
    839.54,  2694.50000,   656.70000
    839.99,  2685.60000,   659.10000
    840.45,  2697.80000,   658.90000
    840.90,  2718.60000,   659.60000
    841.36,  2733.30000,   656.30000
    841.81,  2733.90000,   648.60000
    842.27,  2721.60000,   652.80000
    842.72,  2701.10000,   647.60000
    843.18,  2701.30000,   643.60000
    843.63,  2676.60000,   646.80000
    844.09,  2675.00000,   644.10000
    844.55,  2666.40000,   650.80000
    845.00,  2660.00000,   660.10000
    845.46,  2674.60000,   656.90000
    845.91,  2688.70000,   653.20000
    846.37,  2702.70000,   650.70000
    846.82,  2726.60000,   642.80000
    847.28,  2731.00000,   646.80000
    847.73,  2682.50000,   657.30000
    848.19,  2712.70000,   658.50000
    848.64,  2727.50000,   648.40000
    849.10,  2748.60000,   641.50000
    849.55,  2752.50000,   631.60000
    850.01,  2736.00000,   633.30000
    850.46,  2675.80000,   646.00000
    850.92,  2699.50000,   653.10000
    851.37,  2710.50000,   644.20000
    851.83,  2712.30000,   637.20000
    852.28,  2711.30000,   636.50000
    852.73,  2694.10000,   635.80000
    853.19,  2666.90000,   647.40000
    853.64,  2667.90000,   661.00000
    854.10,  2671.50000,   660.60000
    854.55,  2687.20000,   645.80000
    855.01,  2701.90000,   639.90000
    855.46,  2685.30000,   627.10000
    855.92,  2674.10000,   624.60000
    856.37,  2669.00000,   631.20000
    856.83,  2653.50000,   647.90000
    857.28,  2679.20000,   650.70000
    857.74,  2685.60000,   651.30000
    858.19,  2683.90000,   650.20000
    858.64,  2706.60000,   636.20000
    859.10,  2703.30000,   627.30000
    859.55,  2677.70000,   632.00000
    860.01,  2734.00000,   632.50000
    860.46,  2750.30000,   633.10000
    860.92,  2737.30000,   643.50000
    861.37,  2730.40000,   645.30000
    861.83,  2728.80000,   637.80000
    862.28,  2703.20000,   640.20000
    862.73,  2717.60000,   641.60000
    863.19,  2703.30000,   641.00000
    863.64,  2680.70000,   643.10000
    864.10,  2668.00000,   639.70000
    864.55,  2700.30000,   628.10000
    865.01,  2699.90000,   631.10000
    865.46,  2718.20000,   625.40000
    865.91,  2706.60000,   625.50000
    866.37,  2701.20000,   628.10000
    866.82,  2693.80000,   626.90000
    867.28,  2685.80000,   624.40000
    867.73,  2664.60000,   636.20000
    868.18,  2690.00000,   643.60000
    868.64,  2690.20000,   648.10000
    869.09,  2716.10000,   647.80000
    869.55,  2737.00000,   636.60000
    870.00,  2723.10000,   635.50000
    870.45,  2712.40000,   630.20000
    870.91,  2683.30000,   630.60000
    871.36,  2660.80000,   629.90000
    871.81,  2683.00000,   626.40000
    872.27,  2707.40000,   628.50000
    872.72,  2706.30000,   637.90000
    873.18,  2705.20000,   633.80000
    873.63,  2678.00000,   630.90000
    874.08,  2671.60000,   634.70000
    874.54,  2695.40000,   625.30000
    874.99,  2695.40000,   627.60000
    875.44,  2674.20000,   625.30000
    875.90,  2654.60000,   624.50000
    876.35,  2649.20000,   628.90000
    876.81,  2680.70000,   639.70000
    877.26,  2716.10000,   641.50000
    877.71,  2702.10000,   643.20000
    878.17,  2678.70000,   639.70000
    878.62,  2696.20000,   636.70000
    879.07,  2713.00000,   640.80000
    879.53,  2734.70000,   646.30000
    879.98,  2727.10000,   656.90000
    880.43,  2707.10000,   655.50000
    880.89,  2697.40000,   642.90000
    881.34,  2700.60000,   638.80000
    881.79,  2710.00000,   634.60000
    882.25,  2705.20000,   636.80000
    882.70,  2686.30000,   647.80000
    883.15,  2676.30000,   647.30000
    883.61,  2682.10000,   653.10000
    884.06,  2653.40000,   664.00000
    884.51,  2663.00000,   663.70000
    884.97,  2660.90000,   652.40000
    885.42,  2686.80000,   635.20000
    885.87,  2691.00000,   623.70000
    886.32,  2705.90000,   627.40000
    886.78,  2670.30000,   644.20000
    887.23,  2673.90000,   654.00000
    887.68,  2672.40000,   647.20000
    888.14,  2686.80000,   636.00000
    888.59,  2672.40000,   641.30000
    889.04,  2651.60000,   644.20000
    889.50,  2615.40000,   658.30000
    889.95,  2642.60000,   652.50000
    890.40,  2673.00000,   652.00000
    890.85,  2693.10000,   648.80000
    891.31,  2690.30000,   645.10000
    891.76,  2681.50000,   653.70000
    892.21,  2660.30000,   662.80000
    892.67,  2677.70000,   660.90000
    893.12,  2671.40000,   664.30000
    893.57,  2680.10000,   662.90000
    894.02,  2687.30000,   651.60000
    894.48,  2707.10000,   652.40000
    894.93,  2699.10000,   657.10000
    895.38,  2696.30000,   669.20000
    895.83,  2675.60000,   665.80000
    896.29,  2676.20000,   671.20000
    896.74,  2675.20000,   661.40000
    897.19,  2693.70000,   660.60000
    897.64,  2700.40000,   664.90000
    898.10,  2703.50000,   668.80000
    898.55,  2680.20000,   670.00000
    899.00,  2666.60000,   674.90000
    899.45,  2634.80000,   664.10000
    899.91,  2627.80000,   664.50000
    900.36,  2619.10000,   668.70000
    900.81,  2656.50000,   664.30000
    901.26,  2672.00000,   664.00000
    901.72,  2695.40000,   654.90000
    902.17,  2688.20000,   648.40000
    902.62,  2698.10000,   648.90000
    903.07,  2662.60000,   662.70000
    903.52,  2669.80000,   669.70000
    903.98,  2671.90000,   674.80000
    904.43,  2675.70000,   681.60000
    904.88,  2668.70000,   679.50000
    905.33,  2677.40000,   679.20000
    905.79,  2662.70000,   673.40000
    906.24,  2672.70000,   674.60000
    906.69,  2687.10000,   677.50000
    907.14,  2684.70000,   680.70000
    907.59,  2658.80000,   677.20000
    908.05,  2645.30000,   672.50000
    908.50,  2630.90000,   667.60000
    908.95,  2645.20000,   668.00000
    909.40,  2656.30000,   668.20000
    909.85,  2654.40000,   667.30000
    910.31,  2652.50000,   677.10000
    910.76,  2636.60000,   676.90000
    911.21,  2618.40000,   683.20000
    911.66,  2623.90000,   679.70000
    912.11,  2624.80000,   678.70000
    912.56,  2649.90000,   684.20000
    913.02,  2668.80000,   698.50000
    913.47,  2664.40000,   703.90000
    913.92,  2653.80000,   714.60000
    914.37,  2644.50000,   716.10000
    914.82,  2645.80000,   719.10000
    915.27,  2665.60000,   714.80000
    915.73,  2683.00000,   722.80000
    916.18,  2670.40000,   733.50000
    916.63,  2654.60000,   745.90000
    917.08,  2614.80000,   761.70000
    917.53,  2650.70000,   772.40000
    917.98,  2544.00000,   772.00000
    918.44,  2897.10000,   769.20000
    918.89,  3074.90000,   781.40000
    919.34,  3129.80000,   785.20000
    919.79,  3031.10000,   800.60000
    920.24,  2875.40000,   808.50000
    920.69,  2559.90000,   813.90000
    921.14,  2700.40000,   814.00000
    921.59,  2682.80000,   842.40000
    922.05,  2672.60000,   862.50000
    922.50,  2660.80000,   893.30000
    922.95,  2682.00000,   918.20000
    923.40,  2700.40000,   948.70000
    923.85,  2704.30000,   998.20000
    924.30,  2700.70000,  1053.90000
    924.75,  2687.40000,  1110.20000
    925.20,  2663.50000,  1184.30000
    925.66,  2647.60000,  1272.50000
    926.11,  2649.30000,  1381.70000
    926.56,  2652.90000,  1521.80000
    927.01,  2673.60000,  1673.50000
    927.46,  2672.40000,  1843.60000
    927.91,  2644.80000,  2040.90000
    928.36,  2617.40000,  2258.10000
    928.81,  2625.30000,  2497.80000
    929.26,  2642.40000,  2770.00000
    929.71,  2675.00000,  3057.60000
    930.16,  2700.60000,  3357.10000
    930.62,  2677.00000,  3683.50000
    931.07,  2663.10000,  4014.90000
    931.52,  2656.50000,  4347.60000
    931.97,  2666.70000,  4659.40000
    932.42,  2670.70000,  4933.50000
    932.87,  2681.70000,  5151.00000
    933.32,  2658.10000,  5340.80000
    933.77,  2680.00000,  5512.40000
    934.22,  2679.90000,  5660.70000
    934.67,  2697.10000,  5803.50000
    935.12,  2689.20000,  5946.60000
    935.57,  2660.20000,  6052.80000
    936.02,  2625.20000,  6119.10000
    936.47,  2643.80000,  6194.40000
    936.93,  2622.20000,  6242.30000
    937.38,  2623.80000,  6303.50000
    937.83,  2644.20000,  6372.10000
    938.28,  2636.10000,  6417.10000
    938.73,  2635.90000,  6406.50000
    939.18,  2653.30000,  6443.30000
    939.63,  2648.70000,  6517.50000
    940.08,  2660.20000,  6673.70000
    940.53,  2685.40000,  6893.40000
    940.98,  2679.10000,  7128.30000
    941.43,  2657.00000,  7337.60000
    941.88,  2641.30000,  7534.50000
    942.33,  2640.30000,  7700.10000
    942.78,  2638.50000,  7874.50000
    943.23,  2658.40000,  7965.70000
    943.68,  2662.40000,  8009.60000
    944.13,  2668.30000,  8008.40000
    944.58,  2679.70000,  8009.60000
    945.03,  2672.20000,  8041.70000
    945.48,  2643.60000,  8109.80000
    945.93,  2644.20000,  8119.40000
    946.38,  2655.20000,  8104.60000
    946.83,  2680.90000,  8091.40000
    947.28,  2697.70000,  8156.80000
    947.73,  2685.90000,  8251.20000
    948.18,  2654.70000,  8318.60000
    948.63,  2637.20000,  8338.00000
    949.08,  2638.50000,  8330.00000
    949.53,  2630.80000,  8333.70000
    949.98,  2620.80000,  8353.10000
    950.43,  2629.30000,  8373.70000
    950.88,  2632.80000,  8391.00000
    951.33,  2650.30000,  8383.90000
    951.78,  2684.30000,  8359.90000
    952.23,  2695.00000,  8321.00000
    952.68,  2682.80000,  8220.90000
    953.13,  2683.60000,  8088.40000
    953.58,  2677.50000,  7913.70000
    954.03,  2661.90000,  7746.20000
    954.48,  2646.90000,  7623.50000
    954.93,  2633.50000,  7548.90000
    955.38,  2626.40000,  7503.70000
    955.83,  2634.40000,  7441.90000
    956.28,  2641.30000,  7381.60000
    956.73,  2657.00000,  7339.20000
    957.18,  2660.30000,  7287.30000
    957.62,  2651.50000,  7204.70000
    958.07,  2666.40000,  7069.10000
    958.52,  2655.90000,  6851.20000
    958.97,  2645.00000,  6635.90000
    959.42,  2647.30000,  6416.70000
    959.87,  2638.00000,  6220.10000
    960.32,  2640.60000,  6125.30000
    960.77,  2669.10000,  6060.40000
    961.22,  2706.70000,  5966.50000
    961.67,  2720.60000,  5837.10000
    962.12,  2698.40000,  5637.80000
    962.57,  2670.60000,  5406.60000
    963.02,  2672.00000,  5227.20000
    963.47,  2655.10000,  5077.20000
    963.92,  2668.40000,  4927.70000
    964.36,  2671.50000,  4797.50000
    964.81,  2664.90000,  4673.20000
    965.26,  2666.00000,  4555.30000
    965.71,  2672.10000,  4478.00000
    966.16,  2662.00000,  4410.10000
    966.61,  2644.80000,  4340.40000
    967.06,  2640.30000,  4280.40000
    967.51,  2653.60000,  4225.20000
    967.96,  2665.30000,  4146.30000
    968.41,  2672.70000,  4069.40000
    968.85,  2678.40000,  3962.20000
    969.30,  2665.70000,  3827.50000
    969.75,  2673.90000,  3687.30000
    970.20,  2677.30000,  3535.10000
    970.65,  2690.00000,  3393.30000
    971.10,  2683.80000,  3248.30000
    971.55,  2686.10000,  3106.20000
    972.00,  2665.80000,  2968.50000
    972.44,  2641.00000,  2861.00000
    972.89,  2653.80000,  2768.00000
    973.34,  2671.80000,  2697.30000
    973.79,  2673.80000,  2607.30000
    974.24,  2686.50000,  2506.40000
    974.69,  2663.00000,  2419.50000
    975.14,  2625.80000,  2335.70000
    975.59,  2632.30000,  2272.40000
    976.03,  2622.20000,  2230.60000
    976.48,  2614.80000,  2215.10000
    976.93,  2615.60000,  2215.10000
    977.38,  2616.50000,  2241.50000
    977.83,  2613.50000,  2252.70000
    978.28,  2633.80000,  2242.20000
    978.72,  2646.70000,  2232.70000
    979.17,  2663.20000,  2215.20000
    979.62,  2671.40000,  2205.00000
    980.07,  2671.20000,  2207.30000
    980.52,  2652.20000,  2220.50000
    980.97,  2632.30000,  2211.20000
    981.41,  2591.70000,  2215.10000
    981.86,  2584.30000,  2203.40000
    982.31,  2605.90000,  2217.90000
    982.76,  2629.00000,  2238.60000
    983.21,  2666.50000,  2259.10000
    983.66,  2670.20000,  2243.70000
    984.10,  2635.80000,  2207.60000
    984.55,  2624.90000,  2136.60000
    985.00,  2604.40000,  2071.70000
    985.45,  2583.50000,  1992.30000
    985.90,  2600.10000,  1908.40000
    986.34,  2612.40000,  1832.70000
    986.79,  2606.90000,  1764.20000
    987.24,  2617.80000,  1711.40000
    987.69,  2601.30000,  1659.90000
    988.14,  2596.10000,  1619.80000
    988.58,  2609.50000,  1573.20000
    989.03,  2619.20000,  1542.40000
    989.48,  2621.60000,  1500.00000
    989.93,  2623.50000,  1444.40000
    990.38,  2614.10000,  1373.60000
    990.82,  2616.50000,  1324.60000
    991.27,  2623.00000,  1277.50000
    991.72,  2641.30000,  1243.30000
    992.17,  2620.80000,  1220.20000
    992.61,  2631.30000,  1176.70000
    993.06,  2616.70000,  1143.10000
    993.51,  2647.50000,  1115.70000
    993.96,  2653.10000,  1095.30000
    994.41,  2645.30000,  1082.50000
    994.85,  2620.90000,  1069.10000
    995.30,  2638.60000,  1047.10000
    995.75,  2626.70000,  1038.10000
    996.20,  2666.90000,  1010.10000
    996.64,  2648.90000,   992.40000
    997.09,  2613.00000,   973.40000
    997.54,  2602.80000,   953.30000
    997.99,  2596.50000,   935.70000
    998.43,  2590.40000,   930.40000
    998.88,  2590.20000,   922.00000
    999.33,  2597.10000,   915.40000
    999.77,  2628.60000,   896.10000
   1000.22,  2654.70000,   888.00000
   1000.67,  2669.30000,   876.10000
   1001.12,  2669.20000,   865.80000
   1001.56,  2624.50000,   870.80000
   1002.01,  2599.00000,   874.10000
   1002.46,  2616.60000,   858.20000
   1002.91,  2610.40000,   851.40000
   1003.35,  2632.20000,   836.20000
   1003.80,  2628.80000,   827.40000
   1004.25,  2622.20000,   827.80000
   1004.69,  2608.50000,   842.00000
   1005.14,  2596.30000,   843.70000
   1005.59,  2596.40000,   855.90000
   1006.04,  2632.10000,   852.40000
   1006.48,  2647.40000,   848.80000
   1006.93,  2673.00000,   835.50000
   1007.38,  2659.40000,   833.10000
   1007.82,  2622.50000,   828.80000
   1008.27,  2606.10000,   834.20000
   1008.72,  2593.50000,   833.00000
   1009.16,  2587.80000,   829.00000
   1009.61,  2595.50000,   825.40000
   1010.06,  2596.70000,   821.10000
   1010.50,  2628.50000,   823.90000
   1010.95,  2664.00000,   818.00000
   1011.40,  2668.30000,   813.50000
   1011.85,  2648.20000,   810.70000
   1012.29,  2635.60000,   818.30000
   1012.74,  2600.80000,   817.30000
   1013.19,  2587.40000,   833.60000
   1013.63,  2635.50000,   827.80000
   1014.08,  2666.30000,   822.10000
   1014.53,  2666.90000,   822.60000
   1014.97,  2649.40000,   828.20000
   1015.42,  2616.60000,   822.90000
   1015.86,  2575.00000,   825.20000
   1016.31,  2601.90000,   817.40000
   1016.76,  2632.80000,   811.70000
   1017.20,  2623.90000,   819.40000
   1017.65,  2604.00000,   816.30000
   1018.10,  2607.40000,   806.20000
   1018.54,  2589.50000,   804.40000
   1018.99,  2607.30000,   809.90000
   1019.44,  2609.80000,   821.00000
   1019.88,  2607.90000,   828.50000
   1020.33,  2606.10000,   829.50000
   1020.78,  2620.70000,   821.90000
   1021.22,  2628.50000,   815.80000
   1021.67,  2625.50000,   815.60000
   1022.11,  2615.50000,   813.00000
   1022.56,  2616.10000,   814.30000
   1023.01,  2600.40000,   816.80000
   1023.45,  2589.70000,   814.40000
   1023.90,  2592.60000,   811.80000
   1024.34,  2571.10000,   820.20000
   1024.79,  2576.90000,   825.40000
   1025.24,  2595.20000,   835.90000
   1025.68,  2590.50000,   838.50000
   1026.13,  2595.90000,   837.90000
   1026.58,  2601.10000,   836.90000
   1027.02,  2617.30000,   832.50000
   1027.47,  2627.00000,   830.00000
   1027.91,  2628.10000,   829.20000
   1028.36,  2600.60000,   827.60000
   1028.80,  2586.00000,   826.10000
   1029.25,  2563.10000,   829.10000
   1029.70,  2571.60000,   829.10000
   1030.14,  2572.90000,   832.90000
   1030.59,  2573.00000,   832.70000
   1031.03,  2577.20000,   839.10000
   1031.48,  2587.50000,   839.70000
   1031.93,  2610.00000,   847.40000
   1032.37,  2638.10000,   847.30000
   1032.82,  2641.70000,   842.50000
   1033.26,  2649.30000,   831.30000
   1033.71,  2627.80000,   830.00000
   1034.15,  2611.90000,   830.40000
   1034.60,  2609.30000,   834.10000
   1035.05,  2619.60000,   844.00000
   1035.49,  2602.00000,   854.10000
   1035.94,  2603.30000,   861.90000
   1036.38,  2570.80000,   854.50000
   1036.83,  2549.70000,   855.80000
   1037.27,  2543.50000,   843.60000
   1037.72,  2542.80000,   844.10000
   1038.16,  2644.30000,   846.90000
   1038.61,  2715.70000,   865.90000
   1039.05,  2721.80000,   866.90000
   1039.50,  2708.20000,   873.70000
   1039.95,  2652.80000,   873.30000
   1040.39,  2588.80000,   864.30000
   1040.84,  2606.70000,   858.90000
   1041.28,  2596.60000,   872.90000
   1041.73,  2591.40000,   866.40000
   1042.17,  2591.50000,   873.10000
   1042.62,  2595.30000,   873.00000
   1043.06,  2612.10000,   866.30000
   1043.51,  2596.70000,   871.80000
   1043.95,  2604.40000,   877.80000
   1044.40,  2603.00000,   878.50000
   1044.84,  2577.90000,   890.40000
   1045.29,  2572.00000,   890.70000
   1045.73,  2582.30000,   882.20000
   1046.18,  2564.40000,   883.80000
   1046.62,  2564.40000,   881.20000
   1047.07,  2555.90000,   888.00000
   1047.51,  2539.60000,   895.50000
   1047.96,  2570.40000,   901.20000
   1048.40,  2622.90000,   895.90000
   1048.85,  2639.40000,   884.40000
   1049.29,  2629.20000,   880.60000
   1049.74,  2586.10000,   879.80000
   1050.18,  2542.70000,   897.10000
   1050.63,  2541.20000,   908.10000
   1051.07,  2555.10000,   914.70000
   1051.52,  2577.10000,   907.20000
   1051.96,  2571.10000,   902.10000
   1052.41,  2555.80000,   902.40000
   1052.85,  2548.80000,   917.70000
   1053.30,  2541.80000,   921.50000
   1053.74,  2546.20000,   917.90000
   1054.18,  2554.50000,   919.00000
   1054.63,  2536.60000,   912.90000
   1055.07,  2528.20000,   913.20000
   1055.52,  2528.00000,   909.90000
   1055.96,  2521.30000,   913.80000
   1056.41,  2525.30000,   910.10000
   1056.85,  2517.60000,   919.40000
   1057.30,  2514.60000,   925.10000
   1057.74,  2509.50000,   932.70000
   1058.18,  2510.40000,   936.00000
   1058.63,  2476.70000,   950.40000
   1059.07,  2487.20000,   950.20000
   1059.52,  2492.70000,   957.20000
   1059.96,  2498.90000,   957.20000
   1060.41,  2498.60000,   961.00000
   1060.85,  2514.80000,   951.40000
   1061.30,  2497.50000,   951.40000
   1061.74,  2498.10000,   958.80000
   1062.18,  2491.80000,   961.50000
   1062.63,  2466.30000,   963.60000
   1063.07,  2461.40000,   961.30000
   1063.52,  2469.70000,   953.80000
   1063.96,  2489.10000,   953.00000
   1064.40,  2491.50000,   963.00000
   1064.85,  2483.40000,   967.10000
   1065.29,  2454.90000,   974.20000
   1065.74,  2438.50000,   972.30000
   1066.18,  2405.20000,   977.20000
