2D Measure spectrum data V5.74

<< MEASURE 1 >>
Data count = 2048
Exposure time = 30000 msec
Average = 10
Inspected time = 2020/10/23 19:03

Wave-dcm-1,Dark spec.  ,Spectrum
    108.17,  2228.70000,   549.40000
    108.66,  2232.40000,   548.30000
    109.15,  2241.40000,   539.50000
    109.65,  2260.90000,   540.20000
    110.14,  2274.10000,   535.00000
    110.63,  2285.30000,   524.00000
    111.13,  2305.80000,   510.80000
    111.62,  2299.80000,   503.00000
    112.11,  2315.00000,   495.30000
    112.60,  2335.50000,   495.00000
    113.10,  2324.50000,   492.90000
    113.59,  2341.80000,   495.90000
    114.08,  2356.60000,   507.20000
    114.58,  2341.60000,   521.30000
    115.07,  2379.30000,   527.80000
    115.56,  2394.90000,   517.70000
    116.06,  2386.40000,   508.60000
    116.55,  2387.60000,   505.30000
    117.04,  2378.20000,   504.10000
    117.53,  2357.00000,   503.20000
    118.03,  2391.10000,   502.60000
    118.52,  2403.40000,   502.20000
    119.01,  2404.40000,   507.20000
    119.51,  2481.70000,   524.90000
    120.00,  2563.60000,   544.70000
    120.49,  2599.00000,   549.50000
    120.98,  2599.60000,   552.20000
    121.48,  2521.40000,   554.00000
    121.97,  2418.00000,   567.20000
    122.46,  2397.10000,   594.90000
    122.95,  2425.00000,   614.00000
    123.45,  2466.60000,   622.20000
    123.94,  2483.20000,   626.70000
    124.43,  2507.30000,   635.60000
    124.92,  2538.10000,   642.50000
    125.42,  2529.00000,   667.90000
    125.91,  2543.70000,   684.50000
    126.40,  2525.50000,   708.30000
    126.89,  2502.80000,   717.70000
    127.39,  2497.60000,   721.30000
    127.88,  2492.70000,   731.70000
    128.37,  2489.20000,   746.70000
    128.86,  2510.00000,   764.20000
    129.35,  2503.90000,   788.90000
    129.85,  2519.20000,   799.90000
    130.34,  2512.30000,   807.30000
    130.83,  2509.30000,   823.80000
    131.32,  2517.90000,   820.10000
    131.81,  2526.00000,   824.20000
    132.31,  2529.40000,   823.50000
    132.80,  2533.90000,   825.50000
    133.29,  2509.60000,   838.80000
    133.78,  2518.80000,   842.90000
    134.27,  2531.30000,   856.20000
    134.77,  2540.90000,   868.40000
    135.26,  2562.40000,   867.40000
    135.75,  2556.10000,   870.10000
    136.24,  2564.90000,   888.50000
    136.73,  2553.40000,   888.00000
    137.23,  2570.80000,   896.00000
    137.72,  2566.10000,   895.20000
    138.21,  2562.80000,   900.90000
    138.70,  2548.90000,   906.80000
    139.19,  2580.60000,   929.60000
    139.68,  2568.50000,   936.70000
    140.18,  2577.90000,   932.10000
    140.67,  2583.20000,   934.80000
    141.16,  2580.00000,   939.30000
    141.65,  2566.10000,   946.40000
    142.14,  2568.50000,   955.00000
    142.63,  2592.70000,   962.10000
    143.13,  2597.30000,   958.30000
    143.62,  2632.10000,   965.30000
    144.11,  2632.10000,   971.30000
    144.60,  2594.60000,   980.10000
    145.09,  2586.20000,   986.80000
    145.58,  2644.70000,   995.30000
    146.07,  2663.00000,   993.60000
    146.56,  2674.10000,   992.90000
    147.06,  2664.90000,   994.10000
    147.55,  2629.60000,   997.30000
    148.04,  2583.60000,  1015.70000
    148.53,  2615.00000,  1025.40000
    149.02,  2590.20000,  1034.90000
    149.51,  2667.30000,  1047.50000
    150.00,  2725.10000,  1063.80000
    150.49,  2745.60000,  1088.80000
    150.99,  2740.60000,  1113.50000
    151.48,  2715.90000,  1128.40000
    151.97,  2636.50000,  1136.60000
    152.46,  2646.00000,  1150.30000
    152.95,  2629.80000,  1151.30000
    153.44,  2630.70000,  1158.70000
    153.93,  2650.20000,  1162.90000
    154.42,  2663.80000,  1171.00000
    154.91,  2646.70000,  1163.50000
    155.40,  2622.90000,  1168.00000
    155.89,  2606.20000,  1159.30000
    156.39,  2625.10000,  1159.60000
    156.88,  2607.50000,  1159.10000
    157.37,  2622.70000,  1176.40000
    157.86,  2631.00000,  1192.10000
    158.35,  2633.40000,  1207.50000
    158.84,  2643.70000,  1231.90000
    159.33,  2689.50000,  1253.20000
    159.82,  2699.40000,  1252.90000
    160.31,  2715.80000,  1257.70000
    160.80,  2746.00000,  1264.80000
    161.29,  2702.20000,  1249.20000
    161.78,  2665.20000,  1254.20000
    162.27,  2636.60000,  1273.20000
    162.76,  2631.80000,  1284.40000
    163.25,  2640.10000,  1290.50000
    163.74,  2672.20000,  1302.90000
    164.23,  2680.90000,  1295.70000
    164.72,  2704.60000,  1302.30000
    165.21,  2682.50000,  1318.60000
    165.70,  2666.30000,  1337.10000
    166.20,  2702.00000,  1352.40000
    166.69,  2725.60000,  1361.00000
    167.18,  2735.10000,  1364.90000
    167.67,  2732.30000,  1366.00000
    168.16,  2703.60000,  1360.60000
    168.65,  2657.30000,  1354.70000
    169.14,  2684.30000,  1349.20000
    169.63,  2679.30000,  1332.70000
    170.12,  2666.70000,  1317.30000
    170.61,  2664.20000,  1287.10000
    171.10,  2720.40000,  1272.00000
    171.59,  2723.20000,  1261.30000
    172.08,  2737.50000,  1266.80000
    172.57,  2731.30000,  1283.00000
    173.06,  2726.00000,  1302.30000
    173.55,  2710.10000,  1302.70000
    174.04,  2687.10000,  1307.10000
    174.53,  2678.10000,  1303.60000
    175.02,  2671.40000,  1302.40000
    175.50,  2697.00000,  1309.60000
    175.99,  2735.10000,  1313.80000
    176.48,  2764.10000,  1307.20000
    176.97,  2739.70000,  1296.10000
    177.46,  2746.70000,  1273.70000
    177.95,  2713.70000,  1262.00000
    178.44,  2691.70000,  1262.70000
    178.93,  2676.20000,  1262.90000
    179.42,  2702.10000,  1257.20000
    179.91,  2718.30000,  1260.20000
    180.40,  2730.80000,  1259.20000
    180.89,  2734.10000,  1271.10000
    181.38,  2708.40000,  1295.50000
    181.87,  2698.80000,  1312.20000
    182.36,  2699.70000,  1321.50000
    182.85,  2676.30000,  1321.80000
    183.34,  2700.50000,  1316.20000
    183.83,  2717.00000,  1308.10000
    184.32,  2710.00000,  1305.50000
    184.81,  2755.20000,  1293.50000
    185.29,  2748.30000,  1291.30000
    185.78,  2720.40000,  1275.60000
    186.27,  2725.10000,  1273.00000
    186.76,  2714.40000,  1270.20000
    187.25,  2681.50000,  1272.80000
    187.74,  2752.10000,  1277.70000
    188.23,  2780.00000,  1275.30000
    188.72,  2807.20000,  1271.20000
    189.21,  2793.00000,  1278.70000
    189.70,  2761.10000,  1283.40000
    190.19,  2717.70000,  1301.90000
    190.67,  2707.00000,  1308.20000
    191.16,  2710.20000,  1304.50000
    191.65,  2715.20000,  1304.00000
    192.14,  2700.20000,  1300.60000
    192.63,  2722.00000,  1294.60000
    193.12,  2742.20000,  1290.80000
    193.61,  2734.50000,  1278.10000
    194.10,  2752.40000,  1272.50000
    194.59,  2740.50000,  1276.00000
    195.07,  2729.70000,  1286.40000
    195.56,  2737.70000,  1298.90000
    196.05,  2723.50000,  1301.50000
    196.54,  2710.10000,  1299.50000
    197.03,  2725.60000,  1296.70000
    197.52,  2764.70000,  1283.20000
    198.01,  2781.00000,  1275.00000
    198.49,  2790.40000,  1270.50000
    198.98,  2783.90000,  1260.70000
    199.47,  2742.00000,  1254.60000
    199.96,  2723.30000,  1259.20000
    200.45,  2736.50000,  1245.70000
    200.94,  2720.00000,  1236.30000
    201.43,  2736.60000,  1211.60000
    201.91,  2736.40000,  1197.70000
    202.40,  2724.00000,  1196.00000
    202.89,  2716.70000,  1204.80000
    203.38,  2730.10000,  1215.00000
    203.87,  2724.90000,  1225.10000
    204.36,  2722.40000,  1219.20000
    204.84,  2723.60000,  1221.50000
    205.33,  2736.00000,  1224.70000
    205.82,  2749.00000,  1232.30000
    206.31,  2748.90000,  1239.00000
    206.80,  2748.20000,  1245.00000
    207.28,  2755.10000,  1255.40000
    207.77,  2756.80000,  1257.70000
    208.26,  2760.80000,  1264.40000
    208.75,  2759.10000,  1272.90000
    209.24,  2746.10000,  1260.60000
    209.72,  2758.10000,  1262.50000
    210.21,  2776.30000,  1269.10000
    210.70,  2755.80000,  1273.60000
    211.19,  2770.10000,  1281.20000
    211.68,  2777.10000,  1291.80000
    212.16,  2788.70000,  1289.30000
    212.65,  2791.30000,  1308.70000
    213.14,  2770.00000,  1333.20000
    213.63,  2747.60000,  1357.40000
    214.12,  2722.90000,  1366.60000
    214.60,  2734.10000,  1380.70000
    215.09,  2757.60000,  1385.10000
    215.58,  2766.90000,  1379.60000
    216.07,  2762.50000,  1391.80000
    216.55,  2767.20000,  1410.40000
    217.04,  2707.30000,  1421.40000
    217.53,  2707.80000,  1435.80000
    218.02,  2708.90000,  1450.00000
    218.50,  2718.40000,  1462.40000
    218.99,  2735.10000,  1493.50000
    219.48,  2756.40000,  1519.50000
    219.97,  2726.70000,  1531.50000
    220.45,  2742.80000,  1533.20000
    220.94,  2732.20000,  1553.40000
    221.43,  2743.30000,  1567.70000
    221.92,  2760.90000,  1592.40000
    222.40,  2758.10000,  1606.80000
    222.89,  2753.30000,  1611.30000
    223.38,  2771.10000,  1622.50000
    223.86,  2784.80000,  1630.10000
    224.35,  2807.60000,  1626.30000
    224.84,  2805.40000,  1634.00000
    225.33,  2790.30000,  1637.90000
    225.81,  2767.10000,  1623.20000
    226.30,  2748.90000,  1614.60000
    226.79,  2750.10000,  1588.20000
    227.27,  2743.50000,  1571.50000
    227.76,  2741.70000,  1569.80000
    228.25,  2769.70000,  1559.20000
    228.74,  2784.00000,  1538.70000
    229.22,  2798.70000,  1524.30000
    229.71,  2796.50000,  1489.00000
    230.20,  2782.10000,  1454.90000
    230.68,  2778.30000,  1425.50000
    231.17,  2766.80000,  1399.60000
    231.66,  2733.60000,  1385.50000
    232.14,  2725.90000,  1370.20000
    232.63,  2720.10000,  1347.20000
    233.12,  2746.10000,  1321.60000
    233.60,  2774.70000,  1297.70000
    234.09,  2749.70000,  1284.90000
    234.58,  2736.10000,  1262.10000
    235.06,  2738.90000,  1247.40000
    235.55,  2738.50000,  1232.00000
    236.04,  2732.50000,  1222.30000
    236.52,  2750.70000,  1215.10000
    237.01,  2730.30000,  1202.00000
    237.50,  2767.50000,  1175.50000
    237.98,  2760.20000,  1169.00000
    238.47,  2816.30000,  1157.40000
    238.96,  2820.20000,  1156.90000
    239.44,  2813.40000,  1153.20000
    239.93,  2805.70000,  1146.00000
    240.41,  2763.70000,  1131.90000
    240.90,  2693.30000,  1129.60000
    241.39,  2716.50000,  1129.90000
    241.87,  2764.00000,  1129.40000
    242.36,  2787.30000,  1127.60000
    242.85,  2836.10000,  1119.60000
    243.33,  2831.00000,  1111.20000
    243.82,  2805.30000,  1104.90000
    244.30,  2777.80000,  1094.00000
    244.79,  2780.90000,  1087.60000
    245.28,  2763.20000,  1077.10000
    245.76,  2760.70000,  1070.70000
    246.25,  2745.00000,  1065.00000
    246.74,  2762.90000,  1072.00000
    247.22,  2783.80000,  1080.70000
    247.71,  2781.90000,  1082.40000
    248.19,  2770.40000,  1084.10000
    248.68,  2766.10000,  1086.90000
    249.16,  2732.90000,  1074.20000
    249.65,  2759.80000,  1081.70000
    250.14,  2772.20000,  1085.70000
    250.62,  2757.30000,  1077.90000
    251.11,  2733.00000,  1083.80000
    251.59,  2712.60000,  1089.80000
    252.08,  2698.10000,  1087.50000
    252.57,  2718.20000,  1078.30000
    253.05,  2721.50000,  1068.40000
    253.54,  2762.00000,  1065.30000
    254.02,  2795.20000,  1058.40000
    254.51,  2803.60000,  1063.50000
    254.99,  2801.60000,  1062.90000
    255.48,  2773.90000,  1060.80000
    255.96,  2736.80000,  1067.90000
    256.45,  2760.70000,  1077.30000
    256.94,  2768.80000,  1081.50000
    257.42,  2766.20000,  1084.90000
    257.91,  2770.90000,  1077.90000
    258.39,  2767.40000,  1076.00000
    258.88,  2751.90000,  1075.20000
    259.36,  2773.20000,  1072.60000
    259.85,  2770.10000,  1085.30000
    260.33,  2783.50000,  1084.70000
    260.82,  2803.90000,  1080.30000
    261.30,  2815.50000,  1084.40000
    261.79,  2788.80000,  1089.40000
    262.27,  2768.30000,  1095.50000
    262.76,  2744.50000,  1116.20000
    263.24,  2741.30000,  1120.40000
    263.73,  2766.20000,  1120.00000
    264.22,  2766.60000,  1116.00000
    264.70,  2833.70000,  1121.80000
    265.19,  2862.20000,  1122.80000
    265.67,  2864.30000,  1129.70000
    266.16,  2837.40000,  1132.60000
    266.64,  2811.90000,  1129.90000
    267.13,  2747.00000,  1125.20000
    267.61,  2748.30000,  1143.00000
    268.10,  2765.00000,  1142.50000
    268.58,  2769.30000,  1153.30000
    269.06,  2770.70000,  1154.50000
    269.55,  2792.50000,  1156.20000
    270.03,  2804.90000,  1161.90000
    270.52,  2795.50000,  1174.50000
    271.00,  2805.70000,  1174.90000
    271.49,  2794.50000,  1182.90000
    271.97,  2790.90000,  1179.40000
    272.46,  2802.80000,  1188.10000
    272.94,  2806.90000,  1194.70000
    273.43,  2796.90000,  1207.40000
    273.91,  2769.40000,  1219.90000
    274.40,  2755.10000,  1224.80000
    274.88,  2747.20000,  1227.90000
    275.37,  2754.80000,  1229.60000
    275.85,  2750.20000,  1233.20000
    276.33,  2748.90000,  1241.40000
    276.82,  2753.90000,  1258.50000
    277.30,  2767.10000,  1271.10000
    277.79,  2775.70000,  1274.70000
    278.27,  2787.60000,  1273.20000
    278.76,  2801.20000,  1278.10000
    279.24,  2804.50000,  1274.60000
    279.73,  2802.70000,  1275.40000
    280.21,  2789.40000,  1289.50000
    280.69,  2769.90000,  1291.20000
    281.18,  2764.70000,  1300.40000
    281.66,  2777.00000,  1317.60000
    282.15,  2805.90000,  1319.00000
    282.63,  2803.50000,  1314.90000
    283.11,  2792.60000,  1315.10000
    283.60,  2793.60000,  1302.20000
    284.08,  2813.70000,  1295.20000
    284.57,  2791.20000,  1299.90000
    285.05,  2789.90000,  1298.80000
    285.53,  2774.30000,  1294.80000
    286.02,  2748.40000,  1290.70000
    286.50,  2768.80000,  1284.50000
    286.99,  2790.40000,  1276.80000
    287.47,  2766.30000,  1281.20000
    287.95,  2750.70000,  1280.50000
    288.44,  2738.80000,  1278.50000
    288.92,  2734.60000,  1268.70000
    289.41,  2754.10000,  1265.40000
    289.89,  2785.00000,  1254.10000
    290.37,  2793.80000,  1257.50000
    290.86,  2819.20000,  1243.60000
    291.34,  2782.70000,  1236.10000
    291.82,  2771.20000,  1220.10000
    292.31,  2752.60000,  1209.60000
    292.79,  2764.50000,  1204.30000
    293.28,  2764.30000,  1208.60000
    293.76,  2775.30000,  1201.50000
    294.24,  2773.40000,  1196.30000
    294.73,  2795.90000,  1188.10000
    295.21,  2804.60000,  1173.80000
    295.69,  2810.30000,  1161.90000
    296.18,  2784.20000,  1148.10000
    296.66,  2740.20000,  1146.60000
    297.14,  2740.50000,  1134.70000
    297.63,  2754.50000,  1119.60000
    298.11,  2775.50000,  1106.90000
    298.59,  2812.90000,  1094.30000
    299.08,  2824.90000,  1083.70000
    299.56,  2819.90000,  1079.10000
    300.04,  2836.30000,  1069.20000
    300.53,  2835.80000,  1055.30000
    301.01,  2830.00000,  1049.30000
    301.49,  2816.90000,  1051.30000
    301.98,  2782.80000,  1050.10000
    302.46,  2756.10000,  1041.30000
    302.94,  2757.90000,  1028.80000
    303.42,  2757.70000,  1017.50000
    303.91,  2743.90000,  1013.50000
    304.39,  2726.20000,  1008.50000
    304.87,  2726.50000,  1010.40000
    305.36,  2745.40000,  1004.50000
    305.84,  2774.40000,  1002.00000
    306.32,  2811.80000,   991.00000
    306.81,  2802.00000,   981.10000
    307.29,  2780.90000,   958.70000
    307.77,  2774.30000,   948.40000
    308.25,  2773.30000,   946.70000
    308.74,  2782.10000,   949.20000
    309.22,  2778.30000,   955.10000
    309.70,  2764.00000,   950.30000
    310.18,  2752.90000,   929.10000
    310.67,  2768.80000,   914.50000
    311.15,  2787.50000,   910.00000
    311.63,  2807.70000,   899.80000
    312.12,  2811.30000,   902.70000
    312.60,  2782.00000,   901.90000
    313.08,  2751.80000,   894.60000
    313.56,  2737.70000,   890.70000
    314.05,  2736.00000,   886.90000
    314.53,  2764.50000,   878.50000
    315.01,  2823.00000,   871.20000
    315.49,  2815.80000,   875.90000
    315.98,  2807.10000,   881.10000
    316.46,  2775.40000,   880.10000
    316.94,  2736.00000,   874.60000
    317.42,  2727.20000,   870.00000
    317.90,  2739.00000,   861.20000
    318.39,  2722.90000,   852.90000
    318.87,  2767.50000,   855.30000
    319.35,  2790.90000,   849.30000
    319.83,  2799.10000,   849.80000
    320.32,  2810.10000,   861.10000
    320.80,  2820.20000,   868.30000
    321.28,  2784.90000,   856.50000
    321.76,  2819.40000,   850.70000
    322.24,  2817.30000,   847.40000
    322.73,  2830.40000,   845.40000
    323.21,  2834.90000,   849.40000
    323.69,  2838.70000,   853.40000
    324.17,  2788.80000,   843.10000
    324.65,  2756.70000,   837.80000
    325.14,  2755.90000,   846.90000
    325.62,  2774.60000,   844.60000
    326.10,  2823.60000,   846.80000
    326.58,  2845.60000,   844.70000
    327.06,  2799.80000,   849.10000
    327.55,  2802.80000,   858.80000
    328.03,  2825.10000,   868.40000
    328.51,  2837.80000,   864.50000
    328.99,  2856.40000,   863.70000
    329.47,  2847.80000,   855.60000
    329.95,  2776.50000,   850.20000
    330.44,  2776.90000,   847.00000
    330.92,  2745.50000,   835.70000
    331.40,  2729.50000,   830.70000
    331.88,  2730.80000,   827.40000
    332.36,  2745.60000,   828.80000
    332.84,  2773.50000,   830.60000
    333.33,  2809.60000,   827.60000
    333.81,  2811.00000,   823.50000
    334.29,  2814.20000,   822.70000
    334.77,  2813.00000,   814.20000
    335.25,  2799.50000,   811.60000
    335.73,  2810.50000,   819.10000
    336.21,  2805.40000,   814.60000
    336.69,  2796.10000,   814.40000
    337.18,  2793.40000,   798.90000
    337.66,  2774.40000,   786.30000
    338.14,  2757.50000,   778.70000
    338.62,  2740.40000,   795.10000
    339.10,  2765.20000,   800.60000
    339.58,  2806.40000,   813.90000
    340.06,  2822.50000,   811.80000
    340.54,  2827.10000,   809.80000
    341.03,  2815.30000,   804.30000
    341.51,  2776.00000,   814.70000
    341.99,  2771.80000,   817.00000
    342.47,  2774.70000,   825.40000
    342.95,  2770.70000,   823.50000
    343.43,  2775.50000,   815.80000
    343.91,  2781.50000,   802.10000
    344.39,  2761.30000,   794.10000
    344.87,  2741.20000,   793.80000
    345.35,  2746.90000,   797.60000
    345.84,  2761.10000,   794.70000
    346.32,  2808.60000,   800.30000
    346.80,  2825.00000,   809.20000
    347.28,  2824.90000,   798.60000
    347.76,  2802.00000,   795.20000
    348.24,  2800.20000,   782.20000
    348.72,  2825.80000,   773.20000
    349.20,  2849.20000,   777.50000
    349.68,  2832.10000,   785.20000
    350.16,  2799.60000,   781.10000
    350.64,  2758.50000,   784.00000
    351.12,  2743.40000,   784.50000
    351.60,  2793.30000,   790.30000
    352.08,  2829.30000,   798.30000
    352.56,  2848.70000,   793.90000
    353.04,  2844.40000,   783.90000
    353.53,  2829.20000,   776.10000
    354.01,  2806.80000,   780.00000
    354.49,  2824.20000,   777.20000
    354.97,  2821.10000,   783.50000
    355.45,  2817.20000,   791.10000
    355.93,  2795.50000,   782.20000
    356.41,  2800.40000,   787.60000
    356.89,  2777.80000,   797.40000
    357.37,  2788.70000,   795.80000
    357.85,  2774.00000,   787.70000
    358.33,  2766.60000,   791.30000
    358.81,  2745.90000,   781.70000
    359.29,  2756.80000,   784.60000
    359.77,  2775.00000,   790.70000
    360.25,  2806.60000,   792.80000
    360.73,  2808.60000,   793.20000
    361.21,  2793.20000,   797.10000
    361.69,  2792.90000,   798.10000
    362.17,  2792.30000,   792.00000
    362.65,  2805.30000,   793.20000
    363.13,  2819.10000,   789.40000
    363.61,  2824.70000,   786.90000
    364.09,  2793.00000,   782.70000
    364.57,  2786.10000,   792.00000
    365.05,  2780.30000,   797.80000
    365.53,  2760.70000,   802.70000
    366.01,  2781.90000,   799.10000
    366.49,  2825.00000,   790.70000
    366.97,  2789.90000,   787.00000
    367.45,  2802.50000,   796.20000
    367.93,  2823.40000,   811.70000
    368.41,  2806.60000,   814.60000
    368.89,  2816.70000,   807.90000
    369.37,  2826.20000,   803.20000
    369.85,  2770.90000,   806.60000
    370.33,  2791.20000,   809.80000
    370.80,  2814.60000,   816.90000
    371.28,  2813.50000,   813.40000
    371.76,  2791.50000,   816.10000
    372.24,  2772.30000,   808.60000
    372.72,  2765.10000,   811.90000
    373.20,  2785.70000,   809.00000
    373.68,  2818.80000,   805.80000
    374.16,  2841.50000,   800.30000
    374.64,  2816.50000,   806.20000
    375.12,  2787.30000,   808.60000
    375.60,  2814.40000,   814.70000
    376.08,  2789.40000,   818.40000
    376.56,  2786.30000,   820.40000
    377.04,  2786.60000,   822.00000
    377.52,  2790.20000,   820.40000
    377.99,  2780.00000,   823.30000
    378.47,  2806.90000,   825.50000
    378.95,  2791.20000,   825.30000
    379.43,  2810.10000,   824.70000
    379.91,  2817.10000,   825.30000
    380.39,  2865.10000,   831.00000
    380.87,  2882.80000,   837.00000
    381.35,  2866.20000,   845.80000
    381.83,  2834.70000,   839.90000
    382.31,  2799.20000,   839.30000
    382.79,  2757.00000,   842.70000
    383.26,  2772.90000,   844.10000
    383.74,  2777.70000,   843.20000
    384.22,  2772.90000,   848.90000
    384.70,  2778.80000,   841.70000
    385.18,  2757.90000,   841.10000
    385.66,  2763.00000,   849.80000
    386.14,  2778.80000,   841.60000
    386.62,  2796.20000,   838.10000
    387.09,  2813.80000,   842.90000
    387.57,  2824.60000,   849.20000
    388.05,  2814.80000,   856.10000
    388.53,  2810.20000,   867.80000
    389.01,  2811.20000,   865.90000
    389.49,  2825.80000,   862.00000
    389.97,  2822.40000,   860.30000
    390.44,  2810.80000,   865.00000
    390.92,  2787.90000,   866.20000
    391.40,  2771.00000,   872.90000
    391.88,  2774.90000,   860.40000
    392.36,  2789.30000,   851.20000
    392.84,  2797.30000,   846.30000
    393.32,  2808.00000,   859.20000
    393.79,  2791.40000,   871.10000
    394.27,  2839.70000,   878.60000
    394.75,  2838.10000,   874.60000
    395.23,  2832.60000,   871.40000
    395.71,  2817.90000,   859.20000
    396.18,  2816.70000,   860.50000
    396.66,  2826.20000,   863.10000
    397.14,  2868.30000,   855.10000
    397.62,  2828.30000,   862.70000
    398.10,  2817.90000,   865.80000
    398.58,  2801.10000,   865.20000
    399.05,  2812.50000,   865.00000
    399.53,  2831.80000,   866.00000
    400.01,  2835.10000,   856.90000
    400.49,  2804.50000,   857.80000
    400.97,  2780.10000,   865.40000
    401.44,  2745.60000,   858.40000
    401.92,  2766.60000,   860.60000
    402.40,  2773.30000,   854.40000
    402.88,  2805.50000,   847.70000
    403.36,  2820.90000,   843.80000
    403.83,  2835.30000,   842.10000
    404.31,  2799.30000,   833.80000
    404.79,  2802.50000,   846.00000
    405.27,  2780.10000,   843.00000
    405.74,  2772.40000,   844.70000
    406.22,  2796.30000,   841.90000
    406.70,  2828.50000,   831.70000
    407.18,  2814.70000,   831.00000
    407.65,  2799.60000,   830.70000
    408.13,  2773.20000,   822.00000
    408.61,  2780.00000,   813.20000
    409.09,  2788.80000,   816.10000
    409.56,  2797.60000,   817.30000
    410.04,  2805.20000,   819.00000
    410.52,  2791.20000,   819.70000
    411.00,  2775.40000,   806.00000
    411.47,  2779.20000,   791.10000
    411.95,  2765.80000,   788.60000
    412.43,  2767.80000,   790.90000
    412.91,  2766.50000,   794.80000
    413.38,  2775.60000,   796.20000
    413.86,  2787.70000,   790.10000
    414.34,  2793.70000,   785.80000
    414.82,  2808.90000,   777.10000
    415.29,  2802.60000,   780.50000
    415.77,  2804.30000,   787.00000
    416.25,  2799.00000,   780.20000
    416.72,  2789.80000,   787.30000
    417.20,  2782.80000,   787.60000
    417.68,  2756.20000,   786.30000
    418.16,  2753.90000,   777.70000
    418.63,  2786.70000,   773.20000
    419.11,  2793.30000,   758.70000
    419.59,  2794.40000,   765.20000
    420.06,  2763.90000,   764.20000
    420.54,  2723.90000,   770.60000
    421.02,  2742.40000,   765.40000
    421.50,  2774.30000,   768.20000
    421.97,  2786.90000,   762.50000
    422.45,  2780.80000,   765.40000
    422.93,  2765.80000,   760.10000
    423.40,  2744.20000,   757.90000
    423.88,  2737.90000,   762.50000
    424.36,  2749.30000,   757.60000
    424.83,  2765.20000,   747.60000
    425.31,  2791.80000,   742.00000
    425.79,  2849.80000,   732.40000
    426.26,  2888.20000,   730.00000
    426.74,  2861.90000,   746.40000
    427.22,  2841.90000,   746.10000
    427.69,  2819.30000,   749.10000
    428.17,  2797.40000,   749.20000
    428.65,  2782.60000,   750.90000
    429.12,  2816.00000,   751.50000
    429.60,  2801.20000,   753.30000
    430.08,  2812.70000,   743.90000
    430.55,  2824.40000,   735.30000
    431.03,  2823.80000,   731.80000
    431.50,  2818.40000,   735.90000
    431.98,  2809.40000,   746.80000
    432.46,  2815.40000,   744.40000
    432.93,  2794.50000,   743.30000
    433.41,  2772.40000,   742.80000
    433.89,  2764.70000,   746.00000
    434.36,  2773.90000,   738.40000
    434.84,  2762.60000,   740.50000
    435.31,  2790.90000,   731.20000
    435.79,  2787.40000,   729.20000
    436.27,  2783.40000,   725.40000
    436.74,  2784.50000,   723.30000
    437.22,  2791.10000,   718.60000
    437.70,  2786.40000,   717.20000
    438.17,  2775.50000,   726.90000
    438.65,  2768.20000,   734.30000
    439.12,  2779.30000,   733.20000
    439.60,  2774.80000,   737.60000
    440.08,  2786.90000,   736.40000
    440.55,  2778.70000,   732.20000
    441.03,  2790.60000,   740.70000
    441.50,  2793.30000,   735.70000
    441.98,  2815.90000,   723.90000
    442.45,  2801.80000,   728.60000
    442.93,  2793.60000,   726.90000
    443.41,  2775.90000,   730.20000
    443.88,  2778.00000,   733.90000
    444.36,  2765.70000,   723.30000
    444.83,  2774.70000,   714.10000
    445.31,  2771.10000,   721.60000
    445.78,  2745.90000,   724.50000
    446.26,  2750.90000,   728.60000
    446.74,  2749.30000,   735.20000
    447.21,  2773.20000,   732.30000
    447.69,  2799.10000,   723.00000
    448.16,  2815.40000,   725.70000
    448.64,  2790.90000,   721.20000
    449.11,  2780.50000,   720.10000
    449.59,  2777.40000,   729.40000
    450.06,  2784.40000,   729.60000
    450.54,  2783.70000,   719.30000
    451.02,  2809.00000,   718.20000
    451.49,  2815.70000,   713.50000
    451.97,  2815.80000,   712.30000
    452.44,  2803.30000,   722.30000
    452.92,  2787.30000,   722.30000
    453.39,  2761.50000,   729.10000
    453.87,  2766.80000,   733.50000
    454.34,  2771.20000,   737.30000
    454.82,  2780.00000,   737.60000
    455.29,  2795.40000,   732.00000
    455.77,  2808.40000,   727.00000
    456.24,  2788.30000,   719.70000
    456.72,  2764.80000,   725.10000
    457.19,  2757.20000,   724.60000
    457.67,  2768.20000,   731.20000
    458.14,  2798.60000,   727.30000
    458.62,  2808.40000,   728.20000
    459.09,  2804.50000,   714.30000
    459.57,  2777.80000,   718.80000
    460.04,  2779.00000,   711.40000
    460.52,  2774.40000,   717.40000
    460.99,  2762.60000,   727.10000
    461.47,  2759.50000,   723.90000
    461.94,  2742.00000,   721.50000
    462.42,  2741.80000,   721.30000
    462.89,  2761.10000,   725.00000
    463.37,  2787.10000,   722.50000
    463.84,  2792.60000,   725.50000
    464.32,  2799.50000,   716.50000
    464.79,  2795.50000,   712.60000
    465.26,  2798.90000,   710.40000
    465.74,  2778.60000,   722.40000
    466.21,  2805.20000,   722.40000
    466.69,  2810.30000,   724.20000
    467.16,  2812.30000,   729.10000
    467.64,  2802.90000,   724.30000
    468.11,  2785.20000,   721.30000
    468.59,  2771.70000,   733.80000
    469.06,  2786.90000,   732.70000
    469.54,  2812.90000,   724.50000
    470.01,  2814.30000,   728.40000
    470.48,  2778.10000,   719.60000
    470.96,  2789.70000,   723.20000
    471.43,  2810.50000,   737.50000
    471.91,  2830.30000,   734.00000
    472.38,  2867.60000,   725.80000
    472.86,  2838.80000,   725.20000
    473.33,  2784.90000,   714.00000
    473.80,  2775.00000,   723.80000
    474.28,  2781.70000,   730.60000
    474.75,  2789.10000,   732.20000
    475.23,  2826.70000,   730.10000
    475.70,  2823.70000,   728.10000
    476.17,  2797.10000,   728.30000
    476.65,  2790.20000,   733.60000
    477.12,  2791.40000,   740.00000
    477.60,  2754.20000,   743.60000
    478.07,  2767.30000,   741.20000
    478.54,  2783.70000,   730.80000
    479.02,  2793.50000,   725.40000
    479.49,  2820.80000,   720.70000
    479.97,  2827.80000,   722.20000
    480.44,  2810.50000,   726.50000
    480.91,  2784.90000,   733.70000
    481.39,  2768.70000,   735.10000
    481.86,  2770.20000,   729.60000
    482.34,  2754.40000,   735.70000
    482.81,  2777.10000,   731.00000
    483.28,  2807.20000,   733.00000
    483.76,  2801.50000,   729.40000
    484.23,  2820.70000,   730.10000
    484.70,  2814.10000,   724.00000
    485.18,  2804.20000,   720.40000
    485.65,  2806.80000,   720.00000
    486.12,  2806.90000,   721.90000
    486.60,  2782.40000,   727.40000
    487.07,  2778.20000,   738.50000
    487.55,  2796.90000,   743.50000
    488.02,  2818.90000,   737.50000
    488.49,  2813.90000,   741.90000
    488.97,  2826.90000,   735.40000
    489.44,  2813.90000,   743.20000
    489.91,  2778.80000,   741.70000
    490.39,  2775.70000,   731.30000
    490.86,  2745.60000,   723.60000
    491.33,  2711.70000,   719.60000
    491.81,  2752.90000,   714.50000
    492.28,  2791.00000,   725.40000
    492.75,  2788.30000,   734.00000
    493.23,  2841.70000,   726.70000
    493.70,  2861.60000,   722.80000
    494.17,  2849.80000,   715.60000
    494.64,  2835.90000,   722.20000
    495.12,  2791.50000,   726.90000
    495.59,  2788.10000,   737.80000
    496.06,  2827.10000,   734.80000
    496.54,  2846.70000,   735.30000
    497.01,  2829.30000,   729.00000
    497.48,  2814.40000,   723.20000
    497.96,  2786.60000,   722.30000
    498.43,  2817.70000,   716.60000
    498.90,  2821.60000,   721.10000
    499.37,  2843.90000,   723.00000
    499.85,  2814.30000,   726.60000
    500.32,  2812.40000,   717.90000
    500.79,  2794.40000,   723.90000
    501.27,  2803.10000,   717.30000
    501.74,  2799.00000,   725.80000
    502.21,  2807.50000,   723.70000
    502.68,  2792.50000,   727.60000
    503.16,  2778.80000,   721.40000
    503.63,  2766.80000,   718.10000
    504.10,  2774.10000,   716.10000
    504.57,  2766.40000,   717.30000
    505.05,  2781.40000,   723.60000
    505.52,  2803.50000,   721.00000
    505.99,  2802.00000,   718.40000
    506.46,  2803.80000,   709.90000
    506.94,  2795.10000,   714.10000
    507.41,  2776.60000,   717.50000
    507.88,  2770.90000,   723.80000
    508.35,  2763.50000,   721.80000
    508.83,  2744.40000,   729.50000
    509.30,  2778.70000,   715.30000
    509.77,  2787.70000,   720.50000
    510.24,  2788.90000,   727.60000
    510.72,  2776.10000,   728.70000
    511.19,  2762.60000,   725.60000
    511.66,  2758.70000,   728.10000
    512.13,  2791.30000,   711.90000
    512.60,  2780.80000,   706.10000
    513.08,  2778.30000,   706.60000
    513.55,  2771.50000,   705.40000
    514.02,  2747.60000,   719.20000
    514.49,  2748.10000,   722.00000
    514.97,  2757.20000,   715.00000
    515.44,  2768.30000,   708.50000
    515.91,  2771.90000,   703.50000
    516.38,  2771.40000,   709.60000
    516.85,  2734.10000,   720.50000
    517.33,  2720.30000,   721.10000
    517.80,  2729.30000,   711.20000
    518.27,  2756.90000,   708.10000
    518.74,  2800.40000,   703.00000
    519.21,  2816.50000,   715.60000
    519.68,  2795.30000,   711.40000
    520.16,  2765.50000,   721.90000
    520.63,  2749.00000,   714.20000
    521.10,  2737.10000,   712.60000
    521.57,  2764.70000,   707.20000
    522.04,  2772.40000,   708.90000
    522.52,  2774.50000,   707.50000
    522.99,  2764.00000,   717.30000
    523.46,  2777.40000,   713.40000
    523.93,  2782.20000,   712.70000
    524.40,  2808.00000,   710.80000
    524.87,  2802.80000,   702.80000
    525.34,  2792.20000,   700.50000
    525.82,  2781.40000,   703.00000
    526.29,  2785.80000,   709.30000
    526.76,  2780.90000,   711.60000
    527.23,  2794.40000,   710.10000
    527.70,  2776.40000,   700.70000
    528.17,  2777.60000,   695.70000
    528.64,  2767.00000,   698.30000
    529.12,  2772.80000,   706.50000
    529.59,  2770.30000,   704.40000
    530.06,  2772.30000,   708.70000
    530.53,  2808.40000,   702.60000
    531.00,  2793.80000,   699.50000
    531.47,  2745.10000,   700.40000
    531.94,  2739.40000,   697.80000
    532.41,  2734.00000,   694.60000
    532.89,  2754.30000,   700.90000
    533.36,  2821.80000,   693.30000
    533.83,  2808.40000,   690.40000
    534.30,  2789.00000,   686.40000
    534.77,  2801.00000,   684.20000
    535.24,  2806.40000,   683.60000
    535.71,  2798.20000,   698.20000
    536.18,  2801.30000,   706.10000
    536.65,  2786.30000,   714.20000
    537.13,  2757.40000,   716.70000
    537.60,  2742.40000,   719.10000
    538.07,  2750.30000,   712.20000
    538.54,  2741.70000,   710.10000
    539.01,  2761.20000,   709.30000
    539.48,  2800.90000,   716.50000
    539.95,  2812.10000,   715.70000
    540.42,  2817.60000,   721.90000
    540.89,  2801.50000,   718.40000
    541.36,  2773.40000,   713.10000
    541.83,  2764.80000,   712.60000
    542.30,  2769.30000,   706.80000
    542.77,  2781.10000,   702.70000
    543.25,  2810.50000,   705.10000
    543.72,  2811.30000,   705.40000
    544.19,  2806.80000,   704.70000
    544.66,  2783.00000,   712.10000
    545.13,  2768.00000,   706.20000
    545.60,  2755.00000,   707.50000
    546.07,  2777.10000,   715.80000
    546.54,  2785.70000,   729.00000
    547.01,  2791.40000,   736.60000
    547.48,  2787.80000,   747.20000
    547.95,  2777.80000,   742.20000
    548.42,  2762.50000,   734.20000
    548.89,  2790.20000,   733.60000
    549.36,  2780.60000,   733.00000
    549.83,  2770.70000,   725.30000
    550.30,  2823.30000,   722.40000
    550.77,  2825.70000,   728.50000
    551.24,  2833.50000,   729.10000
    551.71,  2842.80000,   738.10000
    552.18,  2810.30000,   730.60000
    552.65,  2752.30000,   721.70000
    553.12,  2773.30000,   729.20000
    553.59,  2776.50000,   738.30000
    554.06,  2781.20000,   744.90000
    554.53,  2795.80000,   751.10000
    555.00,  2796.10000,   736.40000
    555.47,  2784.20000,   726.60000
    555.94,  2776.50000,   729.80000
    556.41,  2772.70000,   729.90000
    556.88,  2746.40000,   737.70000
    557.35,  2745.80000,   738.40000
    557.82,  2739.30000,   733.60000
    558.29,  2758.10000,   724.70000
    558.76,  2802.90000,   720.30000
    559.23,  2818.00000,   725.10000
    559.70,  2816.80000,   725.60000
    560.17,  2806.00000,   721.80000
    560.64,  2791.80000,   728.80000
    561.11,  2776.10000,   740.10000
    561.58,  2799.80000,   750.90000
    562.05,  2780.80000,   758.20000
    562.52,  2788.60000,   756.30000
    562.99,  2784.50000,   746.10000
    563.46,  2795.70000,   737.90000
    563.93,  2790.70000,   738.30000
    564.40,  2801.00000,   741.10000
    564.87,  2800.60000,   742.60000
    565.34,  2827.60000,   745.70000
    565.81,  2810.70000,   744.90000
    566.28,  2800.70000,   747.20000
    566.74,  2780.60000,   741.00000
    567.21,  2761.50000,   747.30000
    567.68,  2769.10000,   751.00000
    568.15,  2765.60000,   754.10000
    568.62,  2756.10000,   747.80000
    569.09,  2761.70000,   746.70000
    569.56,  2768.70000,   731.70000
    570.03,  2770.60000,   732.90000
    570.50,  2811.70000,   734.20000
    570.97,  2803.50000,   738.90000
    571.44,  2790.80000,   744.50000
    571.91,  2794.90000,   752.60000
    572.38,  2786.30000,   753.60000
    572.84,  2764.10000,   762.80000
    573.31,  2776.90000,   765.90000
    573.78,  2773.60000,   762.10000
    574.25,  2767.80000,   761.40000
    574.72,  2787.00000,   756.70000
    575.19,  2781.30000,   756.40000
    575.66,  2773.90000,   756.00000
    576.13,  2769.10000,   756.90000
    576.60,  2776.30000,   757.20000
    577.07,  2802.40000,   765.20000
    577.53,  2828.90000,   761.10000
    578.00,  2823.40000,   761.80000
    578.47,  2813.10000,   755.30000
    578.94,  2783.00000,   753.10000
    579.41,  2750.10000,   750.60000
    579.88,  2765.20000,   758.00000
    580.35,  2773.00000,   757.60000
    580.82,  2782.40000,   759.50000
    581.28,  2805.30000,   760.70000
    581.75,  2803.80000,   761.30000
    582.22,  2789.10000,   763.90000
    582.69,  2795.40000,   765.30000
    583.16,  2791.50000,   770.30000
    583.63,  2781.80000,   770.40000
    584.10,  2810.00000,   765.90000
    584.56,  2822.80000,   767.20000
    585.03,  2811.00000,   765.10000
    585.50,  2801.40000,   763.40000
    585.97,  2772.20000,   765.70000
    586.44,  2763.00000,   770.30000
    586.91,  2783.70000,   769.20000
    587.37,  2793.00000,   766.50000
    587.84,  2784.80000,   753.20000
    588.31,  2772.40000,   754.20000
    588.78,  2744.40000,   751.10000
    589.25,  2768.60000,   764.30000
    589.72,  2767.50000,   763.20000
    590.18,  2797.40000,   763.00000
    590.65,  2821.80000,   757.60000
    591.12,  2799.70000,   769.20000
    591.59,  2797.20000,   765.80000
    592.06,  2779.20000,   772.10000
    592.52,  2742.60000,   764.90000
    592.99,  2764.80000,   763.10000
    593.46,  2759.00000,   767.60000
    593.93,  2711.80000,   774.20000
    594.40,  2739.30000,   768.10000
    594.86,  2763.40000,   761.30000
    595.33,  2780.20000,   759.00000
    595.80,  2809.00000,   758.00000
    596.27,  2810.30000,   761.40000
    596.74,  2789.80000,   763.90000
    597.20,  2780.20000,   761.40000
    597.67,  2794.90000,   750.70000
    598.14,  2775.70000,   742.60000
    598.61,  2772.90000,   734.60000
    599.07,  2775.10000,   731.40000
    599.54,  2757.10000,   750.80000
    600.01,  2736.50000,   759.80000
    600.48,  2799.50000,   758.30000
    600.95,  2826.00000,   754.40000
    601.41,  2835.90000,   753.80000
    601.88,  2825.40000,   750.80000
    602.35,  2765.30000,   762.00000
    602.82,  2714.00000,   753.40000
    603.28,  2737.00000,   744.90000
    603.75,  2735.10000,   741.10000
    604.22,  2754.80000,   739.90000
    604.69,  2772.80000,   736.10000
    605.15,  2782.30000,   741.00000
    605.62,  2778.60000,   740.80000
    606.09,  2782.60000,   735.70000
    606.56,  2762.40000,   732.90000
    607.02,  2761.80000,   731.80000
    607.49,  2754.40000,   737.70000
    607.96,  2773.00000,   738.60000
    608.42,  2773.40000,   743.00000
    608.89,  2827.50000,   734.70000
    609.36,  2836.80000,   733.20000
    609.83,  2818.50000,   742.50000
    610.29,  2786.60000,   747.80000
    610.76,  2762.40000,   738.80000
    611.23,  2753.10000,   732.30000
    611.69,  2784.00000,   719.50000
    612.16,  2787.20000,   714.60000
    612.63,  2779.40000,   724.10000
    613.10,  2763.50000,   725.10000
    613.56,  2738.50000,   740.40000
    614.03,  2751.50000,   744.50000
    614.50,  2762.20000,   744.10000
    614.96,  2775.80000,   741.70000
    615.43,  2786.20000,   738.30000
    615.90,  2801.20000,   732.30000
    616.36,  2793.20000,   728.60000
    616.83,  2777.90000,   729.60000
    617.30,  2773.40000,   718.90000
    617.76,  2745.10000,   719.00000
    618.23,  2729.90000,   715.40000
    618.70,  2724.30000,   729.10000
    619.16,  2730.80000,   731.30000
    619.63,  2726.80000,   732.60000
    620.10,  2735.50000,   723.90000
    620.56,  2738.40000,   717.40000
    621.03,  2776.90000,   703.30000
    621.50,  2789.30000,   701.60000
    621.96,  2790.50000,   707.20000
    622.43,  2786.10000,   699.20000
    622.90,  2785.80000,   697.80000
    623.36,  2793.10000,   696.50000
    623.83,  2799.40000,   700.50000
    624.30,  2788.70000,   704.10000
    624.76,  2783.50000,   709.20000
    625.23,  2791.40000,   702.60000
    625.70,  2805.00000,   700.40000
    626.16,  2810.60000,   696.20000
    626.63,  2773.60000,   696.30000
    627.09,  2757.10000,   698.80000
    627.56,  2767.60000,   696.00000
    628.03,  2767.80000,   690.90000
    628.49,  2780.50000,   696.40000
    628.96,  2766.50000,   696.80000
    629.43,  2761.20000,   702.00000
    629.89,  2754.10000,   706.10000
    630.36,  2765.80000,   700.30000
    630.82,  2755.40000,   702.30000
    631.29,  2754.20000,   700.40000
    631.76,  2731.60000,   704.80000
    632.22,  2721.90000,   707.90000
    632.69,  2726.80000,   706.60000
    633.15,  2755.60000,   695.00000
    633.62,  2786.50000,   698.30000
    634.09,  2802.20000,   692.80000
    634.55,  2801.60000,   693.70000
    635.02,  2773.50000,   691.00000
    635.48,  2759.50000,   692.70000
    635.95,  2750.10000,   696.80000
    636.42,  2757.10000,   699.00000
    636.88,  2750.80000,   695.40000
    637.35,  2753.20000,   682.90000
    637.81,  2768.10000,   678.00000
    638.28,  2773.10000,   677.60000
    638.74,  2785.20000,   680.20000
    639.21,  2786.00000,   685.30000
    639.68,  2767.30000,   683.20000
    640.14,  2743.40000,   680.60000
    640.61,  2753.10000,   686.80000
    641.07,  2725.00000,   690.50000
    641.54,  2743.80000,   691.00000
    642.00,  2750.90000,   703.40000
    642.47,  2772.90000,   694.30000
    642.93,  2773.00000,   690.70000
    643.40,  2780.10000,   680.40000
    643.87,  2760.90000,   678.30000
    644.33,  2772.00000,   673.70000
    644.80,  2773.60000,   682.80000
    645.26,  2763.60000,   680.70000
    645.73,  2749.40000,   684.70000
    646.19,  2739.60000,   688.90000
    646.66,  2737.30000,   698.00000
    647.12,  2733.40000,   696.90000
    647.59,  2749.60000,   685.20000
    648.05,  2762.90000,   674.20000
    648.52,  2759.20000,   664.70000
    648.98,  2751.30000,   678.00000
    649.45,  2736.20000,   692.30000
    649.91,  2715.50000,   697.70000
    650.38,  2726.40000,   682.20000
    650.84,  2773.60000,   680.20000
    651.31,  2771.50000,   672.00000
    651.77,  2767.70000,   682.90000
    652.24,  2743.70000,   690.80000
    652.70,  2725.20000,   691.50000
    653.17,  2716.60000,   686.90000
    653.63,  2742.80000,   691.80000
    654.10,  2728.60000,   698.60000
    654.56,  2739.00000,   701.30000
    655.03,  2734.60000,   703.60000
    655.49,  2749.30000,   688.70000
    655.96,  2753.10000,   671.30000
    656.42,  2747.10000,   667.90000
    656.89,  2729.40000,   677.10000
    657.35,  2788.00000,   681.40000
    657.82,  2833.10000,   692.20000
    658.28,  2868.50000,   683.40000
    658.75,  2877.10000,   675.90000
    659.21,  2823.90000,   677.60000
    659.68,  2788.30000,   675.90000
    660.14,  2782.40000,   671.50000
    660.61,  2752.40000,   669.10000
    661.07,  2784.90000,   666.70000
    661.53,  2802.10000,   674.00000
    662.00,  2820.20000,   679.70000
    662.46,  2813.80000,   687.10000
    662.93,  2796.10000,   685.10000
    663.39,  2762.60000,   676.90000
    663.86,  2791.00000,   665.00000
    664.32,  2787.30000,   664.40000
    664.79,  2815.90000,   660.30000
    665.25,  2797.40000,   663.40000
    665.71,  2773.30000,   664.90000
    666.18,  2741.40000,   670.50000
    666.64,  2761.30000,   670.10000
    667.11,  2753.10000,   677.70000
    667.57,  2776.80000,   672.50000
    668.04,  2797.10000,   667.20000
    668.50,  2783.20000,   660.60000
    668.96,  2759.80000,   666.80000
    669.43,  2778.00000,   668.20000
    669.89,  2750.20000,   677.80000
    670.36,  2736.10000,   675.60000
    670.82,  2743.90000,   667.50000
    671.28,  2751.50000,   656.00000
    671.75,  2756.80000,   654.90000
    672.21,  2785.00000,   654.00000
    672.68,  2786.70000,   657.10000
    673.14,  2789.10000,   665.40000
    673.60,  2807.20000,   659.60000
    674.07,  2789.70000,   659.10000
    674.53,  2759.80000,   658.70000
    675.00,  2748.90000,   660.30000
    675.46,  2731.90000,   659.10000
    675.92,  2724.80000,   660.60000
    676.39,  2765.20000,   654.80000
    676.85,  2773.10000,   653.70000
    677.31,  2786.50000,   646.80000
    677.78,  2794.40000,   645.90000
    678.24,  2777.60000,   648.40000
    678.70,  2754.80000,   645.20000
    679.17,  2736.30000,   649.10000
    679.63,  2713.60000,   645.70000
    680.10,  2719.80000,   642.50000
    680.56,  2746.00000,   642.10000
    681.02,  2748.30000,   648.40000
    681.49,  2780.40000,   651.00000
    681.95,  2776.60000,   648.90000
    682.41,  2769.00000,   639.70000
    682.88,  2760.50000,   634.60000
    683.34,  2758.10000,   635.90000
    683.80,  2734.10000,   634.50000
    684.27,  2750.70000,   632.40000
    684.73,  2756.50000,   628.30000
    685.19,  2774.10000,   629.30000
    685.66,  2793.40000,   638.20000
    686.12,  2796.90000,   644.50000
    686.58,  2816.10000,   630.70000
    687.05,  2810.70000,   626.30000
    687.51,  2799.70000,   620.70000
    687.97,  2779.30000,   629.00000
    688.44,  2777.70000,   642.50000
    688.90,  2772.10000,   644.30000
    689.36,  2773.20000,   632.10000
    689.83,  2772.50000,   629.30000
    690.29,  2782.10000,   627.60000
    690.75,  2787.00000,   637.60000
    691.21,  2803.90000,   635.30000
    691.68,  2791.60000,   638.00000
    692.14,  2759.90000,   634.20000
    692.60,  2774.10000,   632.10000
    693.07,  2762.50000,   630.90000
    693.53,  2777.80000,   630.50000
    693.99,  2797.20000,   620.40000
    694.45,  2788.20000,   621.90000
    694.92,  2799.10000,   617.90000
    695.38,  2809.40000,   624.60000
    695.84,  2795.10000,   623.60000
    696.31,  2779.50000,   627.60000
    696.77,  2798.10000,   619.20000
    697.23,  2789.50000,   621.90000
    697.69,  2793.10000,   619.60000
    698.16,  2775.80000,   626.70000
    698.62,  2759.10000,   636.20000
    699.08,  2729.50000,   643.70000
    699.54,  2733.00000,   634.70000
    700.01,  2723.00000,   635.50000
    700.47,  2710.30000,   633.40000
    700.93,  2716.40000,   625.70000
    701.39,  2731.50000,   630.10000
    701.86,  2744.60000,   632.20000
    702.32,  2749.10000,   621.60000
    702.78,  2760.90000,   614.40000
    703.24,  2758.70000,   612.20000
    703.71,  2765.70000,   612.80000
    704.17,  2778.30000,   620.10000
    704.63,  2762.40000,   635.60000
    705.09,  2750.30000,   630.70000
    705.56,  2779.40000,   626.70000
    706.02,  2780.50000,   624.90000
    706.48,  2769.30000,   618.40000
    706.94,  2764.80000,   619.90000
    707.40,  2737.90000,   622.40000
    707.87,  2733.70000,   622.50000
    708.33,  2752.40000,   624.20000
    708.79,  2742.70000,   616.10000
    709.25,  2722.30000,   605.30000
    709.72,  2728.30000,   606.20000
    710.18,  2742.20000,   613.40000
    710.64,  2738.50000,   620.40000
    711.10,  2731.40000,   621.40000
    711.56,  2741.60000,   617.30000
    712.03,  2763.00000,   615.70000
    712.49,  2787.60000,   617.60000
    712.95,  2815.20000,   619.00000
    713.41,  2801.50000,   607.70000
    713.87,  2794.10000,   597.80000
    714.33,  2785.60000,   603.70000
    714.80,  2773.90000,   606.60000
    715.26,  2729.00000,   614.00000
    715.72,  2734.30000,   605.00000
    716.18,  2733.40000,   601.50000
    716.64,  2751.00000,   603.60000
    717.11,  2747.20000,   614.00000
    717.57,  2743.00000,   619.20000
    718.03,  2714.30000,   615.40000
    718.49,  2728.00000,   611.40000
    718.95,  2772.40000,   619.40000
    719.41,  2778.10000,   617.90000
    719.87,  2751.20000,   613.60000
    720.34,  2749.50000,   605.60000
    720.80,  2745.00000,   590.10000
    721.26,  2738.10000,   595.30000
    721.72,  2773.40000,   603.10000
    722.18,  2752.60000,   603.90000
    722.64,  2723.00000,   609.90000
    723.10,  2729.10000,   617.20000
    723.57,  2736.60000,   617.00000
    724.03,  2743.90000,   622.70000
    724.49,  2744.20000,   622.20000
    724.95,  2707.80000,   613.70000
    725.41,  2764.30000,   613.50000
    725.87,  2814.00000,   613.90000
    726.33,  2840.50000,   607.00000
    726.80,  2847.70000,   606.10000
    727.26,  2805.30000,   606.20000
    727.72,  2730.50000,   596.70000
    728.18,  2742.00000,   595.70000
    728.64,  2733.80000,   597.70000
    729.10,  2741.80000,   598.30000
    729.56,  2755.50000,   604.30000
    730.02,  2776.60000,   611.30000
    730.48,  2774.90000,   607.90000
    730.94,  2768.60000,   599.10000
    731.41,  2758.60000,   597.50000
    731.87,  2733.90000,   597.70000
    732.33,  2718.50000,   596.90000
    732.79,  2751.90000,   600.20000
    733.25,  2754.30000,   609.40000
    733.71,  2770.80000,   602.70000
    734.17,  2784.90000,   604.20000
    734.63,  2757.20000,   600.20000
    735.09,  2733.90000,   597.10000
    735.55,  2732.20000,   598.30000
    736.01,  2713.00000,   611.10000
    736.47,  2720.40000,   612.50000
    736.94,  2725.80000,   622.50000
    737.40,  2736.90000,   619.80000
    737.86,  2736.00000,   616.40000
    738.32,  2751.00000,   608.40000
    738.78,  2762.50000,   604.40000
    739.24,  2755.70000,   597.00000
    739.70,  2750.40000,   593.30000
    740.16,  2773.40000,   596.70000
    740.62,  2785.10000,   587.80000
    741.08,  2815.00000,   583.50000
    741.54,  2803.10000,   591.50000
    742.00,  2774.50000,   601.60000
    742.46,  2732.50000,   608.00000
    742.92,  2700.50000,   619.20000
    743.38,  2697.50000,   612.40000
    743.84,  2711.20000,   603.40000
    744.30,  2732.40000,   598.40000
    744.76,  2756.60000,   590.40000
    745.22,  2750.00000,   597.00000
    745.68,  2730.40000,   594.00000
    746.14,  2712.10000,   605.60000
    746.60,  2712.20000,   607.70000
    747.06,  2727.00000,   609.40000
    747.52,  2718.80000,   604.00000
    747.98,  2734.70000,   612.80000
    748.44,  2738.00000,   610.90000
    748.90,  2730.80000,   615.30000
    749.36,  2735.30000,   611.40000
    749.82,  2751.70000,   599.60000
    750.28,  2764.00000,   586.40000
    750.74,  2789.20000,   578.40000
    751.20,  2786.70000,   584.30000
    751.66,  2768.60000,   582.60000
    752.12,  2746.40000,   585.20000
    752.58,  2752.10000,   586.00000
    753.04,  2771.10000,   584.90000
    753.50,  2795.00000,   590.10000
    753.96,  2783.40000,   585.20000
    754.42,  2747.40000,   584.60000
    754.88,  2724.20000,   578.30000
    755.34,  2712.40000,   593.30000
    755.80,  2732.00000,   605.00000
    756.26,  2751.10000,   613.50000
    756.72,  2760.70000,   605.00000
    757.18,  2764.70000,   600.80000
    757.64,  2755.00000,   600.10000
    758.10,  2720.80000,   604.40000
    758.56,  2708.50000,   594.00000
    759.02,  2718.60000,   590.80000
    759.48,  2721.80000,   590.00000
    759.94,  2742.70000,   586.30000
    760.40,  2741.70000,   601.20000
    760.86,  2734.00000,   602.50000
    761.32,  2739.90000,   594.30000
    761.78,  2767.80000,   597.90000
    762.24,  2746.10000,   598.60000
    762.70,  2750.80000,   597.00000
    763.15,  2737.50000,   597.20000
    763.61,  2740.50000,   594.30000
    764.07,  2752.10000,   590.90000
    764.53,  2756.00000,   588.20000
    764.99,  2761.90000,   584.10000
    765.45,  2779.80000,   584.20000
    765.91,  2763.10000,   591.80000
    766.37,  2742.80000,   600.70000
    766.83,  2712.80000,   607.00000
    767.29,  2710.60000,   608.10000
    767.75,  2722.10000,   596.40000
    768.21,  2741.10000,   595.20000
    768.66,  2759.90000,   588.70000
    769.12,  2765.30000,   598.50000
    769.58,  2746.80000,   593.00000
    770.04,  2733.10000,   598.50000
    770.50,  2710.90000,   591.70000
    770.96,  2691.70000,   599.30000
    771.42,  2725.30000,   589.00000
    771.88,  2736.90000,   602.80000
    772.34,  2748.10000,   599.40000
    772.80,  2733.10000,   606.80000
    773.25,  2712.10000,   603.90000
    773.71,  2705.90000,   598.30000
    774.17,  2699.40000,   589.40000
    774.63,  2713.70000,   590.80000
    775.09,  2730.50000,   588.60000
    775.55,  2720.20000,   588.40000
    776.01,  2694.50000,   591.30000
    776.47,  2700.60000,   596.10000
    776.92,  2677.10000,   601.50000
    777.38,  2705.20000,   608.80000
    777.84,  2714.60000,   601.80000
    778.30,  2711.20000,   592.80000
    778.76,  2694.40000,   593.00000
    779.22,  2714.20000,   591.20000
    779.68,  2715.00000,   588.40000
    780.13,  2730.60000,   594.40000
    780.59,  2723.10000,   586.00000
    781.05,  2703.20000,   592.80000
    781.51,  2704.80000,   594.10000
    781.97,  2721.90000,   591.80000
    782.43,  2728.70000,   592.70000
    782.88,  2743.00000,   598.90000
    783.34,  2733.60000,   594.90000
    783.80,  2726.40000,   601.20000
    784.26,  2746.60000,   599.50000
    784.72,  2736.90000,   598.70000
    785.18,  2725.30000,   599.60000
    785.63,  2711.00000,   604.80000
    786.09,  2726.10000,   601.80000
    786.55,  2765.20000,   593.90000
    787.01,  2785.80000,   594.50000
    787.47,  2761.10000,   586.20000
    787.92,  2733.30000,   580.50000
    788.38,  2701.30000,   587.10000
    788.84,  2699.30000,   586.50000
    789.30,  2715.90000,   586.70000
    789.76,  2719.50000,   600.50000
    790.21,  2715.50000,   601.60000
    790.67,  2704.30000,   593.30000
    791.13,  2699.00000,   598.90000
    791.59,  2688.20000,   586.80000
    792.05,  2687.50000,   584.90000
    792.50,  2697.50000,   594.40000
    792.96,  2715.30000,   597.10000
    793.42,  2696.30000,   594.00000
    793.88,  2704.30000,   602.90000
    794.33,  2690.10000,   589.90000
    794.79,  2698.40000,   585.50000
    795.25,  2707.50000,   586.60000
    795.71,  2719.00000,   588.80000
    796.17,  2714.90000,   593.20000
    796.62,  2715.70000,   594.50000
    797.08,  2685.80000,   584.60000
    797.54,  2681.00000,   584.90000
    798.00,  2680.50000,   577.70000
    798.45,  2695.10000,   581.70000
    798.91,  2704.90000,   587.50000
    799.37,  2720.40000,   582.60000
    799.83,  2710.50000,   580.10000
    800.28,  2693.40000,   559.30000
    800.74,  2691.50000,   600.70000
    801.20,  2714.70000,   640.50000
    801.66,  2697.80000,   659.70000
    802.11,  2704.70000,   669.00000
    802.57,  2711.80000,   660.10000
    803.03,  2687.80000,   626.00000
    803.48,  2672.10000,   660.00000
    803.94,  2732.40000,   654.30000
    804.40,  2750.40000,   637.60000
    804.86,  2767.60000,   646.50000
    805.31,  2750.90000,   654.10000
    805.77,  2705.80000,   646.70000
    806.23,  2652.50000,   640.30000
    806.69,  2685.90000,   611.50000
    807.14,  2698.60000,   585.70000
    807.60,  2720.00000,   579.40000
    808.06,  2719.90000,   578.60000
    808.51,  2720.10000,   570.50000
    808.97,  2689.80000,   567.90000
    809.43,  2697.20000,   566.00000
    809.88,  2697.20000,   576.30000
    810.34,  2694.50000,   577.20000
    810.80,  2711.10000,   585.70000
    811.26,  2724.10000,   587.90000
    811.71,  2710.30000,   589.20000
    812.17,  2727.80000,   587.80000
    812.63,  2724.30000,   585.30000
    813.08,  2700.00000,   582.80000
    813.54,  2699.20000,   588.80000
    814.00,  2706.60000,   584.90000
    814.45,  2708.60000,   589.20000
    814.91,  2720.60000,   592.90000
    815.37,  2714.50000,   573.90000
    815.82,  2699.20000,   575.30000
    816.28,  2684.50000,   574.80000
    816.74,  2688.10000,   576.00000
    817.19,  2662.70000,   581.00000
    817.65,  2674.60000,   587.90000
    818.11,  2702.80000,   580.90000
    818.56,  2705.60000,   587.00000
    819.02,  2696.70000,   580.30000
    819.48,  2697.80000,   585.80000
    819.93,  2654.90000,   581.90000
    820.39,  2676.10000,   585.90000
    820.84,  2712.30000,   583.80000
    821.30,  2730.10000,   577.60000
    821.76,  2735.50000,   568.60000
    822.21,  2741.00000,   566.60000
    822.67,  2720.90000,   562.80000
    823.13,  2684.10000,   573.60000
    823.58,  2714.90000,   576.10000
    824.04,  2739.30000,   575.30000
    824.49,  2733.10000,   578.20000
    824.95,  2737.40000,   574.70000
    825.41,  2738.50000,   569.90000
    825.86,  2705.80000,   576.30000
    826.32,  2731.10000,   584.50000
    826.78,  2714.90000,   588.80000
    827.23,  2689.60000,   592.20000
    827.69,  2672.80000,   588.40000
    828.14,  2679.50000,   573.70000
    828.60,  2699.30000,   571.80000
    829.06,  2725.10000,   566.00000
    829.51,  2720.50000,   565.40000
    829.97,  2725.50000,   566.30000
    830.42,  2718.60000,   566.50000
    830.88,  2706.00000,   557.50000
    831.34,  2701.50000,   559.70000
    831.79,  2719.90000,   560.00000
    832.25,  2719.00000,   565.00000
    832.70,  2707.30000,   576.10000
    833.16,  2709.50000,   580.10000
    833.61,  2707.00000,   573.20000
    834.07,  2713.80000,   565.10000
    834.53,  2712.00000,   567.70000
    834.98,  2699.30000,   563.70000
    835.44,  2673.40000,   568.20000
    835.89,  2681.80000,   571.10000
    836.35,  2695.40000,   572.50000
    836.80,  2728.50000,   561.70000
    837.26,  2711.30000,   566.90000
    837.71,  2689.80000,   562.00000
    838.17,  2686.10000,   555.30000
    838.63,  2688.40000,   553.00000
    839.08,  2685.40000,   557.90000
    839.54,  2699.20000,   566.20000
    839.99,  2689.40000,   574.50000
    840.45,  2696.80000,   579.20000
    840.90,  2718.00000,   575.80000
    841.36,  2730.10000,   575.20000
    841.81,  2721.50000,   569.70000
    842.27,  2707.90000,   572.40000
    842.72,  2685.90000,   566.70000
    843.18,  2687.80000,   560.50000
    843.63,  2664.50000,   560.70000
    844.09,  2664.10000,   565.20000
    844.55,  2660.40000,   558.20000
    845.00,  2661.20000,   558.20000
    845.46,  2677.60000,   553.60000
    845.91,  2695.90000,   548.20000
    846.37,  2706.30000,   558.40000
    846.82,  2726.40000,   566.40000
    847.28,  2728.90000,   568.20000
    847.73,  2676.70000,   570.10000
    848.19,  2707.90000,   560.00000
    848.64,  2721.70000,   546.20000
    849.10,  2747.90000,   551.30000
    849.55,  2751.20000,   551.70000
    850.01,  2733.50000,   561.90000
    850.46,  2668.30000,   563.80000
    850.92,  2692.70000,   570.20000
    851.37,  2698.40000,   574.20000
    851.83,  2705.60000,   577.70000
    852.28,  2709.60000,   568.00000
    852.73,  2693.50000,   562.90000
    853.19,  2670.10000,   544.90000
    853.64,  2675.20000,   544.20000
    854.10,  2678.20000,   551.80000
    854.55,  2683.00000,   560.00000
    855.01,  2688.30000,   566.30000
    855.46,  2667.20000,   571.00000
    855.92,  2661.00000,   564.70000
    856.37,  2658.50000,   562.10000
    856.83,  2654.30000,   558.50000
    857.28,  2676.30000,   561.30000
    857.74,  2680.40000,   562.20000
    858.19,  2683.80000,   567.00000
    858.64,  2707.20000,   560.80000
    859.10,  2693.70000,   565.00000
    859.55,  2668.10000,   563.70000
    860.01,  2718.20000,   569.80000
    860.46,  2742.70000,   565.40000
    860.92,  2741.70000,   564.20000
    861.37,  2737.00000,   566.30000
    861.83,  2729.60000,   568.60000
    862.28,  2701.40000,   568.80000
    862.73,  2711.20000,   580.80000
    863.19,  2700.70000,   572.50000
    863.64,  2677.90000,   568.20000
    864.10,  2657.80000,   580.20000
    864.55,  2685.20000,   573.20000
    865.01,  2686.60000,   573.70000
    865.46,  2700.10000,   580.00000
    865.91,  2693.00000,   566.50000
    866.37,  2688.00000,   557.40000
    866.82,  2673.70000,   560.60000
    867.28,  2665.40000,   564.50000
    867.73,  2656.20000,   571.50000
    868.18,  2683.60000,   579.50000
    868.64,  2696.30000,   574.00000
    869.09,  2729.30000,   561.40000
    869.55,  2741.50000,   555.70000
    870.00,  2725.80000,   554.10000
    870.45,  2710.50000,   546.90000
    870.91,  2677.00000,   549.70000
    871.36,  2654.90000,   555.10000
    871.81,  2674.90000,   560.70000
    872.27,  2698.80000,   564.50000
    872.72,  2703.20000,   566.20000
    873.18,  2701.30000,   556.00000
    873.63,  2668.00000,   562.20000
    874.08,  2662.20000,   564.80000
    874.54,  2679.80000,   565.50000
    874.99,  2680.60000,   565.30000
    875.44,  2658.70000,   566.20000
    875.90,  2644.70000,   560.10000
    876.35,  2638.80000,   567.50000
    876.81,  2674.20000,   567.90000
    877.26,  2714.00000,   560.00000
    877.71,  2702.80000,   560.60000
    878.17,  2675.30000,   552.50000
    878.62,  2693.40000,   555.90000
    879.07,  2702.90000,   566.00000
    879.53,  2721.00000,   575.50000
    879.98,  2722.10000,   570.10000
    880.43,  2702.80000,   576.00000
    880.89,  2692.60000,   568.00000
    881.34,  2696.00000,   570.40000
    881.79,  2699.00000,   580.40000
    882.25,  2689.70000,   581.20000
    882.70,  2670.50000,   572.90000
    883.15,  2663.30000,   573.90000
    883.61,  2682.80000,   566.80000
    884.06,  2666.60000,   562.90000
    884.51,  2689.10000,   567.90000
    884.97,  2674.60000,   567.00000
    885.42,  2677.90000,   576.30000
    885.87,  2670.00000,   587.30000
    886.32,  2684.90000,   581.30000
    886.78,  2663.50000,   573.40000
    887.23,  2677.30000,   575.60000
    887.68,  2669.70000,   576.70000
    888.14,  2676.40000,   583.10000
    888.59,  2652.10000,   593.50000
    889.04,  2641.80000,   580.00000
    889.50,  2619.80000,   571.50000
    889.95,  2639.80000,   571.30000
    890.40,  2669.90000,   571.70000
    890.85,  2684.10000,   575.00000
    891.31,  2672.80000,   582.80000
    891.76,  2676.00000,   578.10000
    892.21,  2660.60000,   576.60000
    892.67,  2677.20000,   574.20000
    893.12,  2675.80000,   577.80000
    893.57,  2671.50000,   593.20000
    894.02,  2675.80000,   597.10000
    894.48,  2696.90000,   596.80000
    894.93,  2694.00000,   590.30000
    895.38,  2704.80000,   575.40000
    895.83,  2678.90000,   573.90000
    896.29,  2674.80000,   576.70000
    896.74,  2667.50000,   579.30000
    897.19,  2680.00000,   593.70000
    897.64,  2685.20000,   598.20000
    898.10,  2695.60000,   590.90000
    898.55,  2673.80000,   587.80000
    899.00,  2669.50000,   583.40000
    899.45,  2635.10000,   586.60000
    899.91,  2623.20000,   590.00000
    900.36,  2612.60000,   589.10000
    900.81,  2651.60000,   586.90000
    901.26,  2669.80000,   589.00000
    901.72,  2692.20000,   593.40000
    902.17,  2681.80000,   599.00000
    902.62,  2686.20000,   590.90000
    903.07,  2659.20000,   587.40000
    903.52,  2669.90000,   585.50000
    903.98,  2670.10000,   591.20000
    904.43,  2670.40000,   595.70000
    904.88,  2651.40000,   603.70000
    905.33,  2658.10000,   599.50000
    905.79,  2642.70000,   599.50000
    906.24,  2649.80000,   599.40000
    906.69,  2671.70000,   598.00000
    907.14,  2676.10000,   599.40000
    907.59,  2652.50000,   598.10000
    908.05,  2640.90000,   596.80000
    908.50,  2625.20000,   590.60000
    908.95,  2628.50000,   599.20000
    909.40,  2642.50000,   600.90000
    909.85,  2636.20000,   613.20000
    910.31,  2637.80000,   618.30000
    910.76,  2629.60000,   614.10000
    911.21,  2622.30000,   608.70000
    911.66,  2620.90000,   610.10000
    912.11,  2613.00000,   615.50000
    912.56,  2633.90000,   622.10000
    913.02,  2656.50000,   626.70000
    913.47,  2654.00000,   627.90000
    913.92,  2652.90000,   642.00000
    914.37,  2641.40000,   650.40000
    914.82,  2637.00000,   669.00000
    915.27,  2657.50000,   668.30000
    915.73,  2675.90000,   672.90000
    916.18,  2663.00000,   681.10000
    916.63,  2654.70000,   688.20000
    917.08,  2615.90000,   697.10000
    917.53,  2655.20000,   700.80000
    917.98,  2540.90000,   700.30000
    918.44,  2889.80000,   712.40000
    918.89,  3075.40000,   727.50000
    919.34,  3126.30000,   743.70000
    919.79,  3026.90000,   763.70000
    920.24,  2862.30000,   775.30000
    920.69,  2541.40000,   785.10000
    921.14,  2677.00000,   812.10000
    921.59,  2669.60000,   846.40000
    922.05,  2654.40000,   890.80000
    922.50,  2654.40000,   930.50000
    922.95,  2670.80000,   977.10000
    923.40,  2691.70000,  1031.50000
    923.85,  2700.30000,  1111.90000
    924.30,  2701.10000,  1224.40000
    924.75,  2682.30000,  1355.40000
    925.20,  2667.90000,  1493.90000
    925.66,  2651.40000,  1666.00000
    926.11,  2651.90000,  1846.80000
    926.56,  2658.00000,  2044.60000
    927.01,  2667.80000,  2271.20000
    927.46,  2665.10000,  2518.30000
    927.91,  2634.40000,  2786.80000
    928.36,  2606.70000,  3091.60000
    928.81,  2612.00000,  3418.60000
    929.26,  2625.00000,  3748.30000
    929.71,  2653.80000,  4058.00000
    930.16,  2687.20000,  4338.90000
    930.62,  2665.70000,  4595.90000
    931.07,  2653.70000,  4839.60000
    931.52,  2648.40000,  5066.60000
    931.97,  2654.20000,  5271.50000
    932.42,  2666.60000,  5448.10000
    932.87,  2678.80000,  5593.30000
    933.32,  2656.40000,  5721.30000
    933.77,  2672.90000,  5808.80000
    934.22,  2666.10000,  5863.70000
    934.67,  2676.90000,  5944.00000
    935.12,  2673.60000,  6055.70000
    935.57,  2645.10000,  6190.30000
    936.02,  2611.40000,  6293.80000
    936.47,  2637.10000,  6341.50000
    936.93,  2615.50000,  6330.40000
    937.38,  2620.50000,  6315.10000
    937.83,  2641.00000,  6331.10000
    938.28,  2636.20000,  6429.20000
    938.73,  2629.60000,  6603.00000
    939.18,  2648.40000,  6824.60000
    939.63,  2645.20000,  7026.30000
    940.08,  2654.60000,  7193.70000
    940.53,  2679.30000,  7307.80000
    940.98,  2680.90000,  7433.00000
    941.43,  2662.20000,  7556.10000
    941.88,  2656.80000,  7625.60000
    942.33,  2663.60000,  7685.10000
    942.78,  2656.10000,  7756.70000
    943.23,  2669.50000,  7809.90000
    943.68,  2664.60000,  7894.10000
    944.13,  2669.00000,  7922.60000
    944.58,  2683.70000,  7882.50000
    945.03,  2682.80000,  7867.70000
    945.48,  2651.90000,  7911.70000
    945.93,  2651.20000,  7976.50000
    946.38,  2650.80000,  8063.50000
    946.83,  2675.60000,  8112.60000
    947.28,  2691.70000,  8101.10000
    947.73,  2684.80000,  8094.70000
    948.18,  2662.70000,  8103.60000
    948.63,  2649.70000,  8109.10000
    949.08,  2643.10000,  8132.00000
    949.53,  2634.80000,  8140.40000
    949.98,  2621.00000,  8109.40000
    950.43,  2627.20000,  8075.10000
    950.88,  2642.90000,  8001.50000
    951.33,  2651.00000,  7872.10000
    951.78,  2674.50000,  7732.10000
    952.23,  2679.40000,  7573.50000
    952.68,  2660.40000,  7446.20000
    953.13,  2660.80000,  7363.80000
    953.58,  2668.90000,  7307.60000
    954.03,  2655.80000,  7259.60000
    954.48,  2645.60000,  7213.70000
    954.93,  2635.60000,  7166.30000
    955.38,  2623.70000,  7123.40000
    955.83,  2629.00000,  7052.50000
    956.28,  2631.40000,  6939.70000
    956.73,  2648.10000,  6768.80000
    957.18,  2650.40000,  6542.90000
    957.62,  2644.80000,  6306.90000
    958.07,  2657.10000,  6093.00000
    958.52,  2651.60000,  5938.70000
    958.97,  2641.30000,  5836.50000
    959.42,  2644.50000,  5743.00000
    959.87,  2635.20000,  5633.40000
    960.32,  2641.30000,  5460.50000
    960.77,  2665.30000,  5275.70000
    961.22,  2708.90000,  5096.30000
    961.67,  2723.80000,  4957.40000
    962.12,  2693.30000,  4812.50000
    962.57,  2659.20000,  4680.90000
    963.02,  2659.50000,  4546.40000
    963.47,  2640.70000,  4429.70000
    963.92,  2667.00000,  4323.80000
    964.36,  2668.90000,  4260.00000
    964.81,  2664.20000,  4181.50000
    965.26,  2662.20000,  4131.10000
    965.71,  2665.80000,  4089.30000
    966.16,  2658.80000,  4010.40000
    966.61,  2638.80000,  3918.50000
    967.06,  2631.50000,  3805.30000
    967.51,  2652.50000,  3664.10000
    967.96,  2658.80000,  3543.80000
    968.41,  2666.30000,  3425.40000
    968.85,  2672.60000,  3291.40000
    969.30,  2654.40000,  3154.80000
    969.75,  2667.60000,  3005.70000
    970.20,  2668.60000,  2858.70000
    970.65,  2675.60000,  2737.60000
    971.10,  2668.50000,  2626.40000
    971.55,  2668.00000,  2525.80000
    972.00,  2647.50000,  2438.40000
    972.44,  2632.10000,  2362.30000
    972.89,  2650.90000,  2286.40000
    973.34,  2671.00000,  2225.90000
    973.79,  2674.40000,  2153.10000
    974.24,  2688.80000,  2102.00000
    974.69,  2668.00000,  2050.80000
    975.14,  2631.30000,  2031.60000
    975.59,  2639.10000,  2032.70000
    976.03,  2626.60000,  2062.70000
    976.48,  2619.50000,  2099.80000
    976.93,  2619.00000,  2134.80000
    977.38,  2620.00000,  2141.10000
    977.83,  2601.80000,  2144.40000
    978.28,  2610.60000,  2130.70000
    978.72,  2625.50000,  2108.40000
    979.17,  2670.00000,  2076.40000
    979.62,  2701.20000,  2054.40000
    980.07,  2711.90000,  2060.20000
    980.52,  2692.10000,  2075.60000
    980.97,  2651.50000,  2102.20000
    981.41,  2588.40000,  2139.00000
    981.86,  2576.20000,  2146.90000
    982.31,  2592.40000,  2140.70000
    982.76,  2608.50000,  2116.90000
    983.21,  2652.70000,  2042.60000
    983.66,  2662.20000,  1957.90000
    984.10,  2635.00000,  1856.90000
    984.55,  2615.20000,  1764.00000
    985.00,  2601.10000,  1676.40000
    985.45,  2573.70000,  1606.70000
    985.90,  2591.30000,  1537.00000
    986.34,  2607.40000,  1484.90000
    986.79,  2604.70000,  1428.70000
    987.24,  2610.20000,  1380.50000
    987.69,  2593.30000,  1328.80000
    988.14,  2588.80000,  1277.10000
    988.58,  2607.40000,  1230.70000
    989.03,  2627.00000,  1182.60000
    989.48,  2634.90000,  1137.90000
    989.93,  2630.30000,  1103.90000
    990.38,  2604.60000,  1072.40000
    990.82,  2607.10000,  1041.30000
    991.27,  2621.60000,  1017.10000
    991.72,  2650.90000,   983.20000
    992.17,  2643.20000,   958.80000
    992.61,  2646.20000,   940.60000
    993.06,  2617.50000,   926.60000
    993.51,  2633.20000,   906.50000
    993.96,  2628.40000,   898.80000
    994.41,  2619.30000,   878.10000
    994.85,  2600.10000,   861.60000
    995.30,  2621.20000,   831.30000
    995.75,  2618.80000,   805.90000
    996.20,  2658.30000,   781.00000
    996.64,  2635.00000,   775.40000
    997.09,  2605.00000,   757.40000
    997.54,  2594.50000,   743.60000
    997.99,  2587.70000,   724.50000
    998.43,  2591.60000,   710.90000
    998.88,  2596.30000,   703.90000
    999.33,  2597.60000,   698.40000
    999.77,  2626.70000,   692.20000
   1000.22,  2648.00000,   689.80000
   1000.67,  2652.60000,   701.30000
   1001.12,  2652.90000,   708.60000
   1001.56,  2620.80000,   708.10000
   1002.01,  2603.20000,   698.80000
   1002.46,  2619.50000,   684.90000
   1002.91,  2596.80000,   678.70000
   1003.35,  2607.30000,   675.70000
   1003.80,  2594.30000,   672.30000
   1004.25,  2598.80000,   667.70000
   1004.69,  2603.50000,   667.10000
   1005.14,  2600.00000,   658.40000
   1005.59,  2594.90000,   662.50000
   1006.04,  2631.00000,   654.70000
   1006.48,  2637.00000,   658.40000
   1006.93,  2664.40000,   659.00000
   1007.38,  2651.40000,   661.00000
   1007.82,  2603.70000,   666.60000
   1008.27,  2581.80000,   670.30000
   1008.72,  2580.10000,   660.80000
   1009.16,  2580.90000,   662.90000
   1009.61,  2598.30000,   655.20000
   1010.06,  2600.90000,   648.70000
   1010.50,  2624.90000,   654.00000
   1010.95,  2648.80000,   650.20000
   1011.40,  2658.90000,   645.70000
   1011.85,  2636.70000,   649.50000
   1012.29,  2624.30000,   645.60000
   1012.74,  2592.90000,   651.40000
   1013.19,  2589.20000,   653.80000
   1013.63,  2631.40000,   643.30000
   1014.08,  2653.80000,   645.00000
   1014.53,  2653.80000,   635.90000
   1014.97,  2640.40000,   637.70000
   1015.42,  2611.50000,   647.80000
   1015.86,  2577.90000,   652.40000
   1016.31,  2604.60000,   642.10000
   1016.76,  2625.60000,   646.80000
   1017.20,  2617.40000,   640.00000
   1017.65,  2596.00000,   632.80000
   1018.10,  2593.90000,   631.00000
   1018.54,  2574.10000,   638.10000
   1018.99,  2596.30000,   643.90000
   1019.44,  2601.10000,   651.30000
   1019.88,  2598.10000,   654.30000
   1020.33,  2593.80000,   650.60000
   1020.78,  2604.10000,   650.30000
   1021.22,  2608.50000,   656.80000
   1021.67,  2613.90000,   655.10000
   1022.11,  2602.30000,   654.50000
   1022.56,  2610.90000,   644.00000
   1023.01,  2593.60000,   652.00000
   1023.45,  2580.30000,   654.90000
   1023.90,  2581.10000,   659.40000
   1024.34,  2570.60000,   649.20000
   1024.79,  2574.60000,   651.40000
   1025.24,  2600.50000,   637.20000
   1025.68,  2586.30000,   645.70000
   1026.13,  2585.50000,   645.80000
   1026.58,  2593.90000,   645.10000
   1027.02,  2606.10000,   650.10000
   1027.47,  2615.30000,   647.90000
   1027.91,  2620.90000,   638.00000
   1028.36,  2588.60000,   648.40000
   1028.80,  2570.80000,   658.50000
   1029.25,  2557.90000,   651.60000
   1029.70,  2566.20000,   652.90000
   1030.14,  2564.40000,   651.60000
   1030.59,  2560.50000,   650.40000
   1031.03,  2561.90000,   657.10000
   1031.48,  2573.70000,   663.10000
   1031.93,  2608.40000,   650.00000
   1032.37,  2640.70000,   648.10000
   1032.82,  2633.40000,   652.50000
   1033.26,  2634.30000,   655.60000
   1033.71,  2612.50000,   660.40000
   1034.15,  2602.00000,   650.30000
   1034.60,  2601.30000,   641.90000
   1035.05,  2611.10000,   648.10000
   1035.49,  2597.50000,   645.40000
   1035.94,  2598.60000,   650.20000
   1036.38,  2566.40000,   656.50000
   1036.83,  2549.50000,   647.30000
   1037.27,  2540.70000,   643.20000
   1037.72,  2537.70000,   653.10000
   1038.16,  2638.20000,   645.50000
   1038.61,  2712.40000,   645.70000
   1039.05,  2718.70000,   645.40000
   1039.50,  2705.90000,   642.70000
   1039.95,  2659.80000,   637.00000
   1040.39,  2585.50000,   646.50000
   1040.84,  2597.80000,   642.00000
   1041.28,  2599.70000,   646.30000
   1041.73,  2590.80000,   646.50000
   1042.17,  2594.40000,   656.40000
   1042.62,  2598.60000,   654.30000
   1043.06,  2606.60000,   656.90000
   1043.51,  2588.20000,   657.00000
   1043.95,  2594.50000,   659.00000
   1044.40,  2593.00000,   643.90000
   1044.84,  2576.50000,   642.00000
   1045.29,  2568.50000,   637.10000
   1045.73,  2585.70000,   628.20000
   1046.18,  2571.10000,   638.40000
   1046.62,  2564.10000,   647.20000
   1047.07,  2556.70000,   646.40000
   1047.51,  2534.40000,   649.70000
   1047.96,  2561.40000,   662.30000
   1048.40,  2615.20000,   649.20000
   1048.85,  2633.70000,   647.00000
   1049.29,  2619.50000,   644.10000
   1049.74,  2580.70000,   640.30000
   1050.18,  2538.90000,   643.50000
   1050.63,  2541.70000,   653.80000
   1051.07,  2552.20000,   660.10000
   1051.52,  2570.70000,   665.70000
   1051.96,  2557.70000,   669.60000
   1052.41,  2538.50000,   670.00000
   1052.85,  2540.20000,   669.40000
   1053.30,  2543.90000,   662.70000
   1053.74,  2548.60000,   670.00000
   1054.18,  2557.40000,   671.50000
   1054.63,  2538.10000,   670.80000
   1055.07,  2521.70000,   670.20000
   1055.52,  2520.10000,   664.10000
   1055.96,  2514.10000,   656.30000
   1056.41,  2508.80000,   658.30000
   1056.85,  2502.80000,   662.60000
   1057.30,  2503.70000,   666.50000
   1057.74,  2500.90000,   666.40000
   1058.18,  2506.10000,   663.50000
   1058.63,  2486.50000,   651.80000
   1059.07,  2486.30000,   654.20000
   1059.52,  2494.80000,   662.20000
   1059.96,  2500.50000,   665.80000
   1060.41,  2494.10000,   675.10000
   1060.85,  2495.70000,   684.50000
   1061.30,  2479.70000,   678.90000
   1061.74,  2476.20000,   679.20000
   1062.18,  2477.80000,   673.70000
   1062.63,  2461.30000,   669.50000
   1063.07,  2464.80000,   665.10000
   1063.52,  2468.70000,   669.40000
   1063.96,  2488.00000,   671.20000
   1064.40,  2486.30000,   682.30000
   1064.85,  2478.20000,   680.20000
   1065.29,  2451.10000,   687.30000
   1065.74,  2439.50000,   685.80000
   1066.18,  2411.40000,   688.10000
