2D Measure spectrum data V5.74

<< MEASURE 1 >>
Data count = 2048
Exposure time = 30000 msec
Average = 10
Inspected time = 2020/10/25 16:02

Wave-dcm-1,Dark spec.  ,Spectrum
    108.17,  2188.10000,  1726.00000
    108.66,  2191.20000,  1719.10000
    109.15,  2201.40000,  1712.70000
    109.65,  2223.40000,  1675.80000
    110.14,  2235.50000,  1645.50000
    110.63,  2251.50000,  1618.90000
    111.13,  2263.00000,  1582.90000
    111.62,  2257.20000,  1575.70000
    112.11,  2271.40000,  1564.90000
    112.60,  2285.20000,  1534.90000
    113.10,  2279.20000,  1543.30000
    113.59,  2297.00000,  1539.40000
    114.08,  2303.70000,  1537.50000
    114.58,  2306.80000,  1558.60000
    115.07,  2346.80000,  1534.60000
    115.56,  2355.70000,  1523.10000
    116.06,  2349.90000,  1532.60000
    116.55,  2347.80000,  1539.50000
    117.04,  2334.00000,  1541.90000
    117.53,  2327.70000,  1564.90000
    118.03,  2359.30000,  1545.80000
    118.52,  2358.50000,  1553.40000
    119.01,  2382.30000,  1606.20000
    119.51,  2465.90000,  1645.60000
    120.00,  2536.90000,  1651.50000
    120.49,  2560.10000,  1662.50000
    120.98,  2535.20000,  1652.00000
    121.48,  2443.30000,  1674.30000
    121.97,  2369.30000,  1743.60000
    122.46,  2367.50000,  1809.40000
    122.95,  2402.30000,  1868.20000
    123.45,  2434.50000,  1902.90000
    123.94,  2445.70000,  1946.50000
    124.43,  2464.00000,  1979.60000
    124.92,  2484.20000,  1986.00000
    125.42,  2482.90000,  2014.40000
    125.91,  2494.30000,  2039.30000
    126.40,  2485.60000,  2062.50000
    126.89,  2462.00000,  2103.70000
    127.39,  2456.60000,  2142.10000
    127.88,  2458.80000,  2182.70000
    128.37,  2461.20000,  2229.00000
    128.86,  2473.80000,  2269.00000
    129.35,  2470.70000,  2319.90000
    129.85,  2464.90000,  2350.90000
    130.34,  2459.10000,  2390.70000
    130.83,  2464.00000,  2418.80000
    131.32,  2473.80000,  2426.00000
    131.81,  2484.80000,  2425.30000
    132.31,  2490.30000,  2433.80000
    132.80,  2481.40000,  2445.00000
    133.29,  2469.60000,  2466.30000
    133.78,  2474.50000,  2490.90000
    134.27,  2487.60000,  2505.40000
    134.77,  2498.40000,  2528.60000
    135.26,  2515.70000,  2549.40000
    135.75,  2514.00000,  2610.10000
    136.24,  2524.30000,  2630.20000
    136.73,  2517.20000,  2670.70000
    137.23,  2529.60000,  2661.00000
    137.72,  2518.70000,  2669.00000
    138.21,  2518.40000,  2653.70000
    138.70,  2523.50000,  2677.10000
    139.19,  2544.90000,  2672.10000
    139.68,  2533.70000,  2682.70000
    140.18,  2539.90000,  2690.50000
    140.67,  2543.90000,  2702.20000
    141.16,  2541.20000,  2710.00000
    141.65,  2538.30000,  2732.00000
    142.14,  2544.40000,  2774.00000
    142.63,  2557.60000,  2798.60000
    143.13,  2569.00000,  2832.70000
    143.62,  2592.90000,  2836.40000
    144.11,  2569.90000,  2843.00000
    144.60,  2539.20000,  2865.60000
    145.09,  2547.00000,  2911.50000
    145.58,  2596.50000,  2906.70000
    146.07,  2619.20000,  2899.90000
    146.56,  2629.10000,  2903.80000
    147.06,  2607.80000,  2917.90000
    147.55,  2566.90000,  2952.60000
    148.04,  2548.00000,  3016.50000
    148.53,  2560.90000,  3022.70000
    149.02,  2569.70000,  3086.30000
    149.51,  2637.60000,  3105.50000
    150.00,  2686.70000,  3112.30000
    150.49,  2699.90000,  3119.50000
    150.99,  2694.50000,  3117.60000
    151.48,  2651.40000,  3111.00000
    151.97,  2599.00000,  3164.90000
    152.46,  2595.50000,  3172.80000
    152.95,  2584.20000,  3190.20000
    153.44,  2590.60000,  3203.70000
    153.93,  2607.20000,  3209.30000
    154.42,  2607.10000,  3206.80000
    154.91,  2588.90000,  3199.40000
    155.40,  2575.50000,  3182.20000
    155.89,  2568.80000,  3177.80000
    156.39,  2580.00000,  3146.00000
    156.88,  2568.50000,  3156.00000
    157.37,  2578.20000,  3167.60000
    157.86,  2588.60000,  3176.80000
    158.35,  2599.80000,  3207.90000
    158.84,  2625.00000,  3249.70000
    159.33,  2662.60000,  3247.00000
    159.82,  2668.00000,  3267.30000
    160.31,  2685.10000,  3269.30000
    160.80,  2689.30000,  3216.60000
    161.29,  2643.10000,  3191.30000
    161.78,  2614.20000,  3157.90000
    162.27,  2593.70000,  3140.20000
    162.76,  2597.80000,  3130.20000
    163.25,  2614.40000,  3137.80000
    163.74,  2635.60000,  3135.60000
    164.23,  2648.20000,  3149.00000
    164.72,  2661.30000,  3126.00000
    165.21,  2631.40000,  3130.90000
    165.70,  2635.60000,  3135.90000
    166.20,  2658.70000,  3145.10000
    166.69,  2672.10000,  3150.00000
    167.18,  2681.20000,  3134.30000
    167.67,  2670.90000,  3091.50000
    168.16,  2632.20000,  3045.90000
    168.65,  2611.90000,  3044.30000
    169.14,  2629.00000,  3013.70000
    169.63,  2629.20000,  3003.20000
    170.12,  2620.20000,  2983.50000
    170.61,  2629.50000,  2979.20000
    171.10,  2665.80000,  2922.70000
    171.59,  2668.10000,  2905.90000
    172.08,  2679.40000,  2873.60000
    172.57,  2679.10000,  2870.70000
    173.06,  2672.10000,  2861.60000
    173.55,  2655.20000,  2855.40000
    174.04,  2632.00000,  2859.40000
    174.53,  2625.60000,  2852.70000
    175.02,  2633.50000,  2858.70000
    175.50,  2667.70000,  2854.30000
    175.99,  2708.50000,  2835.00000
    176.48,  2721.50000,  2798.80000
    176.97,  2699.60000,  2799.20000
    177.46,  2692.60000,  2769.50000
    177.95,  2666.20000,  2763.90000
    178.44,  2648.80000,  2756.70000
    178.93,  2645.10000,  2767.20000
    179.42,  2662.20000,  2771.80000
    179.91,  2673.00000,  2790.10000
    180.40,  2677.90000,  2810.60000
    180.89,  2676.80000,  2824.60000
    181.38,  2664.70000,  2844.90000
    181.87,  2663.30000,  2858.80000
    182.36,  2656.50000,  2857.30000
    182.85,  2643.60000,  2875.70000
    183.34,  2655.70000,  2860.80000
    183.83,  2655.10000,  2844.20000
    184.32,  2662.40000,  2841.10000
    184.81,  2695.40000,  2798.40000
    185.29,  2691.10000,  2774.20000
    185.78,  2683.90000,  2764.40000
    186.27,  2688.00000,  2745.90000
    186.76,  2667.30000,  2749.50000
    187.25,  2663.00000,  2808.20000
    187.74,  2715.00000,  2811.90000
    188.23,  2739.20000,  2829.80000
    188.72,  2753.00000,  2827.90000
    189.21,  2729.40000,  2835.80000
    189.70,  2695.10000,  2866.50000
    190.19,  2668.50000,  2895.70000
    190.67,  2658.90000,  2919.90000
    191.16,  2664.80000,  2940.00000
    191.65,  2669.20000,  2951.80000
    192.14,  2663.00000,  2988.10000
    192.63,  2684.60000,  3010.90000
    193.12,  2688.50000,  3006.90000
    193.61,  2676.50000,  3002.70000
    194.10,  2686.80000,  2985.20000
    194.59,  2680.40000,  2982.80000
    195.07,  2678.40000,  2994.30000
    195.56,  2687.80000,  2958.60000
    196.05,  2665.10000,  2945.80000
    196.54,  2661.10000,  2901.20000
    197.03,  2688.50000,  2853.30000
    197.52,  2716.60000,  2817.20000
    198.01,  2726.40000,  2795.10000
    198.49,  2727.60000,  2755.60000
    198.98,  2704.30000,  2726.10000
    199.47,  2669.40000,  2717.20000
    199.96,  2665.60000,  2692.60000
    200.45,  2670.70000,  2672.30000
    200.94,  2660.60000,  2663.60000
    201.43,  2661.50000,  2632.80000
    201.91,  2657.60000,  2606.00000
    202.40,  2654.60000,  2597.80000
    202.89,  2664.00000,  2589.70000
    203.38,  2678.60000,  2581.60000
    203.87,  2676.20000,  2576.50000
    204.36,  2669.30000,  2569.50000
    204.84,  2679.10000,  2558.30000
    205.33,  2701.30000,  2550.60000
    205.82,  2707.40000,  2549.30000
    206.31,  2695.10000,  2573.10000
    206.80,  2690.10000,  2588.30000
    207.28,  2698.00000,  2580.40000
    207.77,  2716.10000,  2554.20000
    208.26,  2731.10000,  2531.10000
    208.75,  2726.50000,  2517.50000
    209.24,  2706.40000,  2551.10000
    209.72,  2707.50000,  2573.10000
    210.21,  2707.90000,  2570.10000
    210.70,  2705.10000,  2578.20000
    211.19,  2725.90000,  2561.40000
    211.68,  2739.60000,  2554.00000
    212.16,  2744.30000,  2554.60000
    212.65,  2738.30000,  2561.30000
    213.14,  2721.00000,  2577.80000
    213.63,  2706.60000,  2578.20000
    214.12,  2697.70000,  2590.10000
    214.60,  2710.30000,  2595.40000
    215.09,  2722.40000,  2579.80000
    215.58,  2720.10000,  2576.00000
    216.07,  2713.00000,  2586.70000
    216.55,  2697.60000,  2562.00000
    217.04,  2655.40000,  2605.40000
    217.53,  2655.20000,  2631.30000
    218.02,  2665.10000,  2652.50000
    218.50,  2681.50000,  2659.40000
    218.99,  2700.20000,  2662.00000
    219.48,  2705.30000,  2641.20000
    219.97,  2680.50000,  2669.70000
    220.45,  2683.60000,  2667.20000
    220.94,  2681.60000,  2693.10000
    221.43,  2694.40000,  2703.50000
    221.92,  2708.30000,  2702.30000
    222.40,  2705.00000,  2699.70000
    222.89,  2706.10000,  2702.70000
    223.38,  2723.80000,  2687.80000
    223.86,  2743.70000,  2681.50000
    224.35,  2753.90000,  2664.20000
    224.84,  2748.00000,  2648.10000
    225.33,  2728.70000,  2619.50000
    225.81,  2707.60000,  2602.60000
    226.30,  2700.60000,  2576.60000
    226.79,  2698.70000,  2564.20000
    227.27,  2690.30000,  2557.70000
    227.76,  2700.90000,  2552.20000
    228.25,  2724.20000,  2521.20000
    228.74,  2739.80000,  2497.80000
    229.22,  2756.70000,  2445.90000
    229.71,  2735.10000,  2432.60000
    230.20,  2714.30000,  2422.00000
    230.68,  2707.10000,  2391.10000
    231.17,  2698.00000,  2358.00000
    231.66,  2682.50000,  2325.00000
    232.14,  2684.30000,  2289.00000
    232.63,  2683.00000,  2276.80000
    233.12,  2702.70000,  2263.90000
    233.60,  2708.90000,  2236.30000
    234.09,  2683.60000,  2236.60000
    234.58,  2671.50000,  2216.00000
    235.06,  2675.60000,  2185.80000
    235.55,  2674.40000,  2160.80000
    236.04,  2682.70000,  2146.40000
    236.52,  2689.50000,  2124.50000
    237.01,  2680.40000,  2139.40000
    237.50,  2704.10000,  2104.70000
    237.98,  2718.00000,  2108.40000
    238.47,  2754.20000,  2075.60000
    238.96,  2762.10000,  2053.60000
    239.44,  2754.10000,  2062.50000
    239.93,  2740.70000,  2050.50000
    240.41,  2694.90000,  2038.40000
    240.90,  2656.30000,  2081.70000
    241.39,  2685.20000,  2080.60000
    241.87,  2721.20000,  2057.60000
    242.36,  2750.70000,  2054.20000
    242.85,  2779.40000,  2020.10000
    243.33,  2765.60000,  2004.70000
    243.82,  2735.40000,  2008.00000
    244.30,  2716.40000,  2015.00000
    244.79,  2711.90000,  1993.40000
    245.28,  2701.30000,  1993.70000
    245.76,  2694.90000,  1987.90000
    246.25,  2695.90000,  2005.40000
    246.74,  2722.30000,  1997.90000
    247.22,  2739.10000,  1976.90000
    247.71,  2727.10000,  1967.80000
    248.19,  2710.80000,  1976.00000
    248.68,  2696.80000,  1962.60000
    249.16,  2678.00000,  1990.40000
    249.65,  2715.50000,  1962.90000
    250.14,  2726.40000,  1931.70000
    250.62,  2706.20000,  1922.70000
    251.11,  2684.30000,  1928.20000
    251.59,  2667.70000,  1940.20000
    252.08,  2656.50000,  1956.70000
    252.57,  2668.40000,  1961.70000
    253.05,  2681.80000,  1974.40000
    253.54,  2713.70000,  1967.50000
    254.02,  2733.40000,  1957.30000
    254.51,  2742.20000,  1940.70000
    254.99,  2733.10000,  1911.30000
    255.48,  2705.20000,  1900.10000
    255.96,  2696.70000,  1911.70000
    256.45,  2717.40000,  1906.50000
    256.94,  2718.50000,  1910.80000
    257.42,  2711.50000,  1923.50000
    257.91,  2705.50000,  1930.40000
    258.39,  2699.50000,  1919.20000
    258.88,  2703.70000,  1925.50000
    259.36,  2723.20000,  1911.60000
    259.85,  2733.50000,  1909.90000
    260.33,  2743.50000,  1916.10000
    260.82,  2755.20000,  1909.60000
    261.30,  2753.30000,  1893.00000
    261.79,  2729.60000,  1904.20000
    262.27,  2708.60000,  1913.90000
    262.76,  2698.30000,  1923.50000
    263.24,  2703.60000,  1929.90000
    263.73,  2722.80000,  1918.80000
    264.22,  2738.90000,  1942.60000
    264.70,  2790.20000,  1933.00000
    265.19,  2806.00000,  1919.80000
    265.67,  2793.10000,  1911.00000
    266.16,  2765.70000,  1912.20000
    266.64,  2730.50000,  1909.90000
    267.13,  2690.20000,  1944.80000
    267.61,  2705.00000,  1959.30000
    268.10,  2723.80000,  1952.60000
    268.58,  2723.10000,  1959.00000
    269.06,  2720.00000,  1980.50000
    269.55,  2732.30000,  1976.40000
    270.03,  2736.80000,  1975.80000
    270.52,  2738.50000,  1979.70000
    271.00,  2748.20000,  1972.50000
    271.49,  2746.90000,  1976.00000
    271.97,  2747.70000,  1985.00000
    272.46,  2751.90000,  1980.90000
    272.94,  2746.80000,  1980.00000
    273.43,  2730.90000,  1979.20000
    273.91,  2722.10000,  1976.90000
    274.40,  2717.90000,  1978.90000
    274.88,  2723.20000,  1979.30000
    275.37,  2724.30000,  1979.60000
    275.85,  2715.80000,  1990.70000
    276.33,  2710.40000,  2016.60000
    276.82,  2719.70000,  2020.70000
    277.30,  2718.90000,  2022.50000
    277.79,  2725.20000,  2017.90000
    278.27,  2740.30000,  2008.50000
    278.76,  2756.20000,  2002.30000
    279.24,  2754.10000,  2012.10000
    279.73,  2747.00000,  2013.50000
    280.21,  2734.30000,  2009.90000
    280.69,  2719.90000,  2018.50000
    281.18,  2725.60000,  2022.30000
    281.66,  2750.60000,  2027.10000
    282.15,  2766.70000,  2015.40000
    282.63,  2762.00000,  2005.00000
    283.11,  2752.10000,  2004.10000
    283.60,  2750.20000,  2009.60000
    284.08,  2746.90000,  1991.50000
    284.57,  2729.80000,  1992.90000
    285.05,  2728.50000,  1967.20000
    285.53,  2711.40000,  1965.60000
    286.02,  2697.20000,  2026.90000
    286.50,  2718.50000,  2053.10000
    286.99,  2727.30000,  2037.60000
    287.47,  2714.30000,  2009.30000
    287.95,  2703.60000,  1961.80000
    288.44,  2698.30000,  1917.50000
    288.92,  2697.10000,  1925.00000
    289.41,  2717.30000,  1916.60000
    289.89,  2742.10000,  1900.40000
    290.37,  2755.10000,  1895.00000
    290.86,  2757.70000,  1873.90000
    291.34,  2733.40000,  1864.50000
    291.82,  2714.10000,  1855.30000
    292.31,  2700.30000,  1852.10000
    292.79,  2712.70000,  1838.10000
    293.28,  2716.30000,  1832.00000
    293.76,  2723.70000,  1827.60000
    294.24,  2728.50000,  1832.00000
    294.73,  2740.30000,  1826.70000
    295.21,  2743.30000,  1818.20000
    295.69,  2750.00000,  1781.20000
    296.18,  2722.10000,  1757.00000
    296.66,  2700.50000,  1753.50000
    297.14,  2700.30000,  1753.40000
    297.63,  2707.30000,  1754.40000
    298.11,  2722.60000,  1763.70000
    298.59,  2745.80000,  1739.70000
    299.08,  2749.00000,  1718.90000
    299.56,  2757.60000,  1706.60000
    300.04,  2770.90000,  1687.90000
    300.53,  2775.10000,  1674.90000
    301.01,  2773.20000,  1669.40000
    301.49,  2760.70000,  1651.50000
    301.98,  2733.10000,  1648.40000
    302.46,  2716.70000,  1649.20000
    302.94,  2715.80000,  1629.90000
    303.42,  2715.20000,  1610.80000
    303.91,  2698.10000,  1596.20000
    304.39,  2691.30000,  1595.20000
    304.87,  2689.50000,  1615.40000
    305.36,  2712.50000,  1622.10000
    305.84,  2743.60000,  1621.20000
    306.32,  2764.20000,  1596.60000
    306.81,  2740.80000,  1584.70000
    307.29,  2720.80000,  1572.70000
    307.77,  2712.40000,  1571.40000
    308.25,  2724.10000,  1563.50000
    308.74,  2735.30000,  1549.30000
    309.22,  2727.10000,  1533.70000
    309.70,  2706.10000,  1534.00000
    310.18,  2697.30000,  1522.70000
    310.67,  2711.70000,  1515.90000
    311.15,  2739.90000,  1499.40000
    311.63,  2755.80000,  1493.80000
    312.12,  2750.90000,  1485.70000
    312.60,  2717.90000,  1497.60000
    313.08,  2688.30000,  1502.20000
    313.56,  2672.70000,  1508.40000
    314.05,  2682.40000,  1508.10000
    314.53,  2720.70000,  1507.90000
    315.01,  2766.70000,  1482.20000
    315.49,  2768.00000,  1473.90000
    315.98,  2760.50000,  1450.60000
    316.46,  2725.00000,  1442.60000
    316.94,  2691.50000,  1454.60000
    317.42,  2684.60000,  1455.80000
    317.90,  2681.00000,  1457.40000
    318.39,  2685.70000,  1485.40000
    318.87,  2729.50000,  1467.50000
    319.35,  2747.00000,  1464.30000
    319.83,  2754.90000,  1466.40000
    320.32,  2766.80000,  1452.60000
    320.80,  2760.00000,  1421.30000
    321.28,  2743.80000,  1439.60000
    321.76,  2768.70000,  1415.80000
    322.24,  2765.30000,  1440.00000
    322.73,  2767.70000,  1448.20000
    323.21,  2776.20000,  1442.70000
    323.69,  2769.70000,  1401.50000
    324.17,  2723.10000,  1403.30000
    324.65,  2707.60000,  1406.70000
    325.14,  2710.30000,  1420.50000
    325.62,  2733.60000,  1441.70000
    326.10,  2780.40000,  1414.20000
    326.58,  2782.20000,  1385.40000
    327.06,  2755.70000,  1422.00000
    327.55,  2769.20000,  1442.50000
    328.03,  2785.30000,  1442.10000
    328.51,  2797.70000,  1443.10000
    328.99,  2804.40000,  1417.20000
    329.47,  2767.90000,  1391.30000
    329.95,  2723.90000,  1419.60000
    330.44,  2718.50000,  1412.40000
    330.92,  2688.50000,  1422.70000
    331.40,  2677.00000,  1423.20000
    331.88,  2674.50000,  1430.20000
    332.36,  2692.60000,  1421.80000
    332.84,  2731.00000,  1409.10000
    333.33,  2760.20000,  1390.40000
    333.81,  2758.00000,  1396.70000
    334.29,  2755.00000,  1393.30000
    334.77,  2746.90000,  1389.90000
    335.25,  2746.40000,  1389.20000
    335.73,  2764.10000,  1373.60000
    336.21,  2758.50000,  1365.60000
    336.69,  2749.10000,  1368.50000
    337.18,  2731.20000,  1367.00000
    337.66,  2705.80000,  1368.00000
    338.14,  2682.30000,  1376.00000
    338.62,  2685.50000,  1386.90000
    339.10,  2713.40000,  1392.40000
    339.58,  2752.50000,  1368.60000
    340.06,  2769.60000,  1355.90000
    340.54,  2768.00000,  1342.10000
    341.03,  2748.30000,  1333.90000
    341.51,  2731.70000,  1344.40000
    341.99,  2728.90000,  1350.90000
    342.47,  2734.80000,  1335.80000
    342.95,  2733.20000,  1337.60000
    343.43,  2732.10000,  1336.50000
    343.91,  2730.90000,  1319.00000
    344.39,  2709.60000,  1318.30000
    344.87,  2693.70000,  1327.80000
    345.35,  2702.10000,  1332.50000
    345.84,  2722.80000,  1350.80000
    346.32,  2764.60000,  1338.20000
    346.80,  2775.40000,  1335.10000
    347.28,  2764.00000,  1321.20000
    347.76,  2748.30000,  1323.40000
    348.24,  2753.10000,  1332.70000
    348.72,  2777.00000,  1329.40000
    349.20,  2790.30000,  1309.00000
    349.68,  2764.80000,  1306.70000
    350.16,  2722.20000,  1313.00000
    350.64,  2681.40000,  1340.60000
    351.12,  2684.20000,  1379.90000
    351.60,  2737.30000,  1382.60000
    352.08,  2776.50000,  1367.10000
    352.56,  2799.90000,  1340.60000
    353.04,  2789.50000,  1325.60000
    353.53,  2768.20000,  1315.60000
    354.01,  2758.10000,  1320.30000
    354.49,  2761.40000,  1322.30000
    354.97,  2755.50000,  1328.30000
    355.45,  2748.50000,  1325.10000
    355.93,  2736.80000,  1332.50000
    356.41,  2747.00000,  1314.50000
    356.89,  2742.00000,  1309.40000
    357.37,  2737.30000,  1301.30000
    357.85,  2717.80000,  1307.00000
    358.33,  2704.90000,  1301.90000
    358.81,  2691.50000,  1308.80000
    359.29,  2712.00000,  1319.10000
    359.77,  2733.60000,  1321.40000
    360.25,  2750.20000,  1321.70000
    360.73,  2744.40000,  1327.10000
    361.21,  2739.40000,  1338.20000
    361.69,  2738.40000,  1329.40000
    362.17,  2746.20000,  1338.40000
    362.65,  2759.00000,  1325.00000
    363.13,  2765.50000,  1319.70000
    363.61,  2767.90000,  1292.40000
    364.09,  2745.60000,  1299.50000
    364.57,  2738.70000,  1293.60000
    365.05,  2733.10000,  1299.80000
    365.53,  2725.10000,  1311.40000
    366.01,  2749.20000,  1326.60000
    366.49,  2771.10000,  1297.60000
    366.97,  2746.80000,  1320.00000
    367.45,  2760.60000,  1325.90000
    367.93,  2772.40000,  1311.80000
    368.41,  2760.90000,  1320.00000
    368.89,  2763.10000,  1328.10000
    369.37,  2752.70000,  1307.50000
    369.85,  2723.10000,  1333.10000
    370.33,  2739.90000,  1339.20000
    370.80,  2758.60000,  1318.50000
    371.28,  2753.00000,  1305.70000
    371.76,  2730.60000,  1307.80000
    372.24,  2714.80000,  1319.30000
    372.72,  2719.00000,  1330.10000
    373.20,  2736.50000,  1344.40000
    373.68,  2764.60000,  1338.80000
    374.16,  2772.00000,  1325.50000
    374.64,  2748.80000,  1329.40000
    375.12,  2738.80000,  1356.60000
    375.60,  2749.90000,  1335.70000
    376.08,  2729.70000,  1341.20000
    376.56,  2725.90000,  1330.20000
    377.04,  2725.80000,  1333.90000
    377.52,  2728.40000,  1333.20000
    377.99,  2735.50000,  1353.00000
    378.47,  2747.60000,  1345.30000
    378.95,  2738.40000,  1361.40000
    379.43,  2752.10000,  1351.10000
    379.91,  2764.10000,  1376.30000
    380.39,  2802.90000,  1367.50000
    380.87,  2817.70000,  1353.40000
    381.35,  2802.40000,  1347.10000
    381.83,  2771.80000,  1338.40000
    382.31,  2739.40000,  1334.30000
    382.79,  2715.80000,  1360.60000
    383.26,  2725.60000,  1353.90000
    383.74,  2725.00000,  1354.40000
    384.22,  2722.40000,  1363.60000
    384.70,  2716.00000,  1360.20000
    385.18,  2704.20000,  1374.70000
    385.66,  2714.60000,  1372.20000
    386.14,  2722.80000,  1375.40000
    386.62,  2734.00000,  1379.00000
    387.09,  2746.30000,  1374.00000
    387.57,  2751.00000,  1360.60000
    388.05,  2746.40000,  1355.20000
    388.53,  2750.20000,  1348.70000
    389.01,  2762.70000,  1353.30000
    389.49,  2774.80000,  1350.20000
    389.97,  2765.90000,  1362.50000
    390.44,  2753.10000,  1357.50000
    390.92,  2732.90000,  1356.60000
    391.40,  2718.90000,  1355.20000
    391.88,  2729.30000,  1345.70000
    392.36,  2733.50000,  1343.10000
    392.84,  2738.80000,  1358.70000
    393.32,  2743.20000,  1356.30000
    393.79,  2754.00000,  1384.10000
    394.27,  2790.60000,  1367.60000
    394.75,  2797.00000,  1354.60000
    395.23,  2787.00000,  1338.70000
    395.71,  2775.30000,  1335.70000
    396.18,  2769.90000,  1332.60000
    396.66,  2781.20000,  1346.60000
    397.14,  2795.30000,  1326.00000
    397.62,  2765.20000,  1338.10000
    398.10,  2758.30000,  1331.90000
    398.58,  2752.60000,  1340.40000
    399.05,  2763.70000,  1336.60000
    399.53,  2767.60000,  1342.00000
    400.01,  2756.40000,  1338.10000
    400.49,  2730.00000,  1340.40000
    400.97,  2711.50000,  1322.70000
    401.44,  2691.30000,  1346.20000
    401.92,  2716.70000,  1323.30000
    402.40,  2727.20000,  1333.60000
    402.88,  2756.40000,  1330.80000
    403.36,  2772.20000,  1335.20000
    403.83,  2773.90000,  1306.00000
    404.31,  2747.40000,  1328.50000
    404.79,  2747.90000,  1311.80000
    405.27,  2724.30000,  1319.70000
    405.74,  2725.70000,  1332.20000
    406.22,  2741.30000,  1337.80000
    406.70,  2748.90000,  1310.70000
    407.18,  2736.00000,  1302.20000
    407.65,  2723.30000,  1290.00000
    408.13,  2715.10000,  1292.60000
    408.61,  2732.50000,  1287.20000
    409.09,  2742.10000,  1289.80000
    409.56,  2743.80000,  1297.40000
    410.04,  2742.80000,  1301.70000
    410.52,  2727.20000,  1295.10000
    411.00,  2713.60000,  1284.20000
    411.47,  2713.50000,  1262.30000
    411.95,  2712.40000,  1252.60000
    412.43,  2717.70000,  1251.40000
    412.91,  2718.40000,  1268.40000
    413.38,  2722.00000,  1281.40000
    413.86,  2719.80000,  1291.60000
    414.34,  2724.30000,  1288.00000
    414.82,  2737.10000,  1270.00000
    415.29,  2744.70000,  1260.90000
    415.77,  2751.20000,  1248.60000
    416.25,  2748.20000,  1246.00000
    416.72,  2735.80000,  1249.80000
    417.20,  2716.10000,  1236.30000
    417.68,  2690.00000,  1253.80000
    418.16,  2694.50000,  1267.60000
    418.63,  2721.90000,  1251.10000
    419.11,  2732.70000,  1240.20000
    419.59,  2734.90000,  1214.70000
    420.06,  2703.70000,  1203.80000
    420.54,  2680.20000,  1237.30000
    421.02,  2697.60000,  1244.00000
    421.50,  2724.60000,  1233.50000
    421.97,  2731.90000,  1225.70000
    422.45,  2723.70000,  1218.10000
    422.93,  2709.10000,  1210.10000
    423.40,  2697.90000,  1218.70000
    423.88,  2701.10000,  1213.20000
    424.36,  2710.80000,  1211.20000
    424.83,  2716.30000,  1226.60000
    425.31,  2731.50000,  1254.30000
    425.79,  2785.90000,  1244.30000
    426.26,  2814.40000,  1217.00000
    426.74,  2801.90000,  1201.70000
    427.22,  2787.20000,  1196.20000
    427.69,  2762.60000,  1199.90000
    428.17,  2733.60000,  1219.70000
    428.65,  2736.90000,  1228.30000
    429.12,  2756.00000,  1206.30000
    429.60,  2747.50000,  1202.90000
    430.08,  2750.90000,  1202.10000
    430.55,  2752.30000,  1205.40000
    431.03,  2750.90000,  1216.90000
    431.50,  2743.10000,  1222.50000
    431.98,  2745.50000,  1223.90000
    432.46,  2741.50000,  1212.00000
    432.93,  2720.90000,  1199.20000
    433.41,  2708.50000,  1200.80000
    433.89,  2713.70000,  1199.30000
    434.36,  2717.70000,  1195.00000
    434.84,  2722.00000,  1199.70000
    435.31,  2736.40000,  1193.90000
    435.79,  2731.90000,  1186.40000
    436.27,  2725.60000,  1187.30000
    436.74,  2725.30000,  1187.70000
    437.22,  2723.10000,  1192.10000
    437.70,  2717.00000,  1188.20000
    438.17,  2711.90000,  1194.10000
    438.65,  2712.90000,  1198.30000
    439.12,  2720.10000,  1191.70000
    439.60,  2727.70000,  1195.90000
    440.08,  2730.90000,  1185.30000
    440.55,  2724.10000,  1196.30000
    441.03,  2734.40000,  1187.30000
    441.50,  2734.70000,  1188.40000
    441.98,  2743.30000,  1177.00000
    442.45,  2737.40000,  1177.50000
    442.93,  2731.30000,  1174.70000
    443.41,  2724.90000,  1193.00000
    443.88,  2729.90000,  1187.70000
    444.36,  2715.60000,  1202.70000
    444.83,  2718.80000,  1193.20000
    445.31,  2706.80000,  1177.10000
    445.78,  2691.10000,  1187.50000
    446.26,  2698.00000,  1181.20000
    446.74,  2705.30000,  1195.00000
    447.21,  2723.30000,  1205.60000
    447.69,  2747.30000,  1199.30000
    448.16,  2754.10000,  1175.10000
    448.64,  2734.80000,  1175.50000
    449.11,  2724.20000,  1176.90000
    449.59,  2723.80000,  1184.80000
    450.06,  2724.50000,  1189.10000
    450.54,  2733.40000,  1195.20000
    451.02,  2756.10000,  1174.30000
    451.49,  2759.60000,  1170.20000
    451.97,  2749.90000,  1177.20000
    452.44,  2737.90000,  1184.70000
    452.92,  2720.50000,  1185.90000
    453.39,  2712.10000,  1189.20000
    453.87,  2725.10000,  1174.00000
    454.34,  2737.70000,  1163.90000
    454.82,  2747.80000,  1168.60000
    455.29,  2761.30000,  1170.00000
    455.77,  2752.90000,  1161.30000
    456.24,  2724.10000,  1162.90000
    456.72,  2702.30000,  1165.80000
    457.19,  2703.90000,  1165.30000
    457.67,  2723.10000,  1172.60000
    458.14,  2751.20000,  1159.50000
    458.62,  2747.30000,  1160.80000
    459.09,  2736.10000,  1158.20000
    459.57,  2720.90000,  1172.80000
    460.04,  2720.90000,  1181.40000
    460.52,  2717.80000,  1180.60000
    460.99,  2713.60000,  1173.60000
    461.47,  2695.70000,  1164.60000
    461.94,  2685.10000,  1172.20000
    462.42,  2687.50000,  1188.20000
    462.89,  2702.10000,  1196.10000
    463.37,  2720.00000,  1193.60000
    463.84,  2726.30000,  1194.40000
    464.32,  2731.70000,  1173.40000
    464.79,  2738.60000,  1169.40000
    465.26,  2742.70000,  1162.30000
    465.74,  2738.10000,  1184.00000
    466.21,  2753.80000,  1190.20000
    466.69,  2750.80000,  1199.60000
    467.16,  2741.50000,  1190.10000
    467.64,  2728.60000,  1181.20000
    468.11,  2721.60000,  1172.80000
    468.59,  2724.00000,  1179.50000
    469.06,  2745.10000,  1180.90000
    469.54,  2764.00000,  1167.50000
    470.01,  2748.20000,  1155.40000
    470.48,  2716.70000,  1179.60000
    470.96,  2729.30000,  1194.20000
    471.43,  2752.00000,  1193.60000
    471.91,  2773.10000,  1205.30000
    472.38,  2787.10000,  1178.90000
    472.86,  2752.80000,  1161.80000
    473.33,  2712.20000,  1175.40000
    473.80,  2714.60000,  1181.40000
    474.28,  2726.10000,  1179.60000
    474.75,  2741.80000,  1198.20000
    475.23,  2763.50000,  1190.90000
    475.70,  2755.70000,  1186.90000
    476.17,  2743.30000,  1190.10000
    476.65,  2737.50000,  1192.30000
    477.12,  2725.40000,  1169.40000
    477.60,  2696.20000,  1189.80000
    478.07,  2708.50000,  1192.80000
    478.54,  2728.30000,  1185.70000
    479.02,  2740.50000,  1191.20000
    479.49,  2758.00000,  1190.30000
    479.97,  2759.30000,  1173.50000
    480.44,  2734.10000,  1172.70000
    480.91,  2723.80000,  1166.50000
    481.39,  2733.50000,  1147.00000
    481.86,  2728.90000,  1141.40000
    482.34,  2721.10000,  1166.00000
    482.81,  2734.80000,  1178.50000
    483.28,  2731.70000,  1176.30000
    483.76,  2727.50000,  1179.90000
    484.23,  2743.00000,  1153.60000
    484.70,  2732.10000,  1152.30000
    485.18,  2726.90000,  1163.20000
    485.65,  2731.90000,  1165.90000
    486.12,  2721.50000,  1164.00000
    486.60,  2713.00000,  1164.90000
    487.07,  2727.80000,  1174.90000
    487.55,  2751.90000,  1173.30000
    488.02,  2772.60000,  1164.20000
    488.49,  2771.40000,  1176.90000
    488.97,  2768.50000,  1171.40000
    489.44,  2749.40000,  1148.40000
    489.91,  2717.30000,  1170.10000
    490.39,  2701.00000,  1154.10000
    490.86,  2665.40000,  1166.00000
    491.33,  2653.00000,  1202.60000
    491.81,  2698.10000,  1200.00000
    492.28,  2735.50000,  1162.70000
    492.75,  2745.50000,  1184.50000
    493.23,  2780.50000,  1166.50000
    493.70,  2789.10000,  1166.60000
    494.17,  2776.00000,  1180.30000
    494.64,  2768.10000,  1164.80000
    495.12,  2747.70000,  1170.10000
    495.59,  2755.30000,  1184.40000
    496.06,  2777.60000,  1180.40000
    496.54,  2787.80000,  1158.00000
    497.01,  2767.60000,  1162.80000
    497.48,  2755.80000,  1144.30000
    497.96,  2743.90000,  1160.50000
    498.43,  2764.30000,  1145.30000
    498.90,  2767.10000,  1162.00000
    499.37,  2773.10000,  1145.00000
    499.85,  2756.00000,  1162.50000
    500.32,  2748.40000,  1156.80000
    500.79,  2736.00000,  1163.60000
    501.27,  2741.90000,  1150.30000
    501.74,  2736.10000,  1157.30000
    502.21,  2737.60000,  1148.70000
    502.68,  2727.80000,  1150.00000
    503.16,  2717.70000,  1147.20000
    503.63,  2712.30000,  1149.50000
    504.10,  2712.10000,  1148.50000
    504.57,  2707.90000,  1159.20000
    505.05,  2733.10000,  1153.70000
    505.52,  2753.20000,  1137.80000
    505.99,  2752.60000,  1139.90000
    506.46,  2742.00000,  1139.10000
    506.94,  2722.00000,  1150.90000
    507.41,  2712.50000,  1153.90000
    507.88,  2712.00000,  1150.00000
    508.35,  2709.80000,  1142.50000
    508.83,  2711.50000,  1162.10000
    509.30,  2736.80000,  1155.40000
    509.77,  2741.20000,  1158.50000
    510.24,  2739.80000,  1149.20000
    510.72,  2718.40000,  1159.70000
    511.19,  2698.30000,  1174.90000
    511.66,  2704.40000,  1178.70000
    512.13,  2723.90000,  1160.60000
    512.60,  2713.20000,  1157.80000
    513.08,  2714.30000,  1145.80000
    513.55,  2711.60000,  1134.20000
    514.02,  2703.70000,  1134.60000
    514.49,  2711.10000,  1131.50000
    514.97,  2718.40000,  1135.00000
    515.44,  2721.90000,  1137.80000
    515.91,  2714.40000,  1147.00000
    516.38,  2707.80000,  1130.40000
    516.85,  2686.40000,  1133.80000
    517.33,  2677.70000,  1148.90000
    517.80,  2692.60000,  1150.60000
    518.27,  2727.80000,  1148.40000
    518.74,  2755.60000,  1144.60000
    519.21,  2769.60000,  1122.50000
    519.68,  2745.60000,  1118.90000
    520.16,  2718.60000,  1124.90000
    520.63,  2699.20000,  1132.20000
    521.10,  2692.80000,  1149.90000
    521.57,  2706.80000,  1149.80000
    522.04,  2710.00000,  1153.80000
    522.52,  2710.50000,  1143.20000
    522.99,  2714.60000,  1150.60000
    523.46,  2730.20000,  1143.50000
    523.93,  2744.40000,  1143.50000
    524.40,  2756.60000,  1127.90000
    524.87,  2744.90000,  1133.30000
    525.34,  2732.90000,  1128.30000
    525.82,  2724.10000,  1140.20000
    526.29,  2728.40000,  1139.10000
    526.76,  2735.70000,  1147.80000
    527.23,  2737.80000,  1133.20000
    527.70,  2731.00000,  1135.20000
    528.17,  2722.40000,  1125.80000
    528.64,  2721.50000,  1122.00000
    529.12,  2724.90000,  1125.40000
    529.59,  2726.20000,  1136.00000
    530.06,  2738.40000,  1146.30000
    530.53,  2753.20000,  1134.20000
    531.00,  2722.50000,  1128.70000
    531.47,  2697.60000,  1144.00000
    531.94,  2694.90000,  1139.00000
    532.41,  2696.60000,  1144.00000
    532.89,  2728.20000,  1151.90000
    533.36,  2755.60000,  1132.30000
    533.83,  2740.10000,  1136.10000
    534.30,  2726.60000,  1159.70000
    534.77,  2748.20000,  1143.90000
    535.24,  2754.70000,  1134.30000
    535.71,  2755.90000,  1137.30000
    536.18,  2751.10000,  1134.20000
    536.65,  2730.60000,  1139.90000
    537.13,  2694.50000,  1154.20000
    537.60,  2690.50000,  1163.10000
    538.07,  2684.60000,  1172.20000
    538.54,  2683.50000,  1194.60000
    539.01,  2709.10000,  1206.20000
    539.48,  2745.00000,  1192.20000
    539.95,  2762.30000,  1173.30000
    540.42,  2764.10000,  1156.00000
    540.89,  2739.80000,  1163.30000
    541.36,  2714.20000,  1183.80000
    541.83,  2706.40000,  1201.50000
    542.30,  2709.60000,  1211.50000
    542.77,  2722.40000,  1214.30000
    543.25,  2741.10000,  1188.80000
    543.72,  2745.40000,  1181.10000
    544.19,  2743.30000,  1162.00000
    544.66,  2724.60000,  1169.10000
    545.13,  2707.40000,  1179.10000
    545.60,  2696.00000,  1210.30000
    546.07,  2716.40000,  1212.40000
    546.54,  2727.80000,  1205.90000
    547.01,  2737.50000,  1208.00000
    547.48,  2727.40000,  1216.60000
    547.95,  2713.70000,  1216.40000
    548.42,  2709.60000,  1239.10000
    548.89,  2729.30000,  1216.10000
    549.36,  2722.40000,  1196.50000
    549.83,  2732.20000,  1218.40000
    550.30,  2760.20000,  1201.60000
    550.77,  2760.70000,  1209.80000
    551.24,  2761.00000,  1231.50000
    551.71,  2758.50000,  1221.60000
    552.18,  2725.20000,  1214.70000
    552.65,  2701.80000,  1231.50000
    553.12,  2726.70000,  1204.80000
    553.59,  2738.60000,  1193.60000
    554.06,  2737.90000,  1208.70000
    554.53,  2739.80000,  1211.70000
    555.00,  2732.20000,  1220.20000
    555.47,  2722.30000,  1219.90000
    555.94,  2717.70000,  1217.30000
    556.41,  2707.40000,  1215.70000
    556.88,  2688.80000,  1230.20000
    557.35,  2681.40000,  1235.90000
    557.82,  2687.40000,  1243.30000
    558.29,  2719.10000,  1245.10000
    558.76,  2757.50000,  1230.00000
    559.23,  2770.90000,  1222.70000
    559.70,  2767.30000,  1220.20000
    560.17,  2746.30000,  1227.40000
    560.64,  2729.70000,  1232.30000
    561.11,  2728.00000,  1250.50000
    561.58,  2743.00000,  1227.50000
    562.05,  2737.10000,  1234.60000
    562.52,  2740.80000,  1233.10000
    562.99,  2740.90000,  1241.30000
    563.46,  2742.50000,  1234.10000
    563.93,  2741.10000,  1243.60000
    564.40,  2742.50000,  1239.50000
    564.87,  2743.20000,  1252.80000
    565.34,  2748.40000,  1242.90000
    565.81,  2745.00000,  1244.50000
    566.28,  2737.90000,  1228.40000
    566.74,  2726.50000,  1229.90000
    567.21,  2716.30000,  1242.30000
    567.68,  2720.30000,  1248.60000
    568.15,  2711.20000,  1248.90000
    568.62,  2711.40000,  1248.00000
    569.09,  2712.70000,  1239.70000
    569.56,  2715.10000,  1234.00000
    570.03,  2723.60000,  1242.90000
    570.50,  2751.20000,  1231.30000
    570.97,  2746.00000,  1229.10000
    571.44,  2741.20000,  1241.80000
    571.91,  2741.40000,  1237.00000
    572.38,  2732.20000,  1230.80000
    572.84,  2719.80000,  1242.80000
    573.31,  2722.90000,  1237.30000
    573.78,  2717.90000,  1238.80000
    574.25,  2721.00000,  1251.20000
    574.72,  2735.80000,  1236.70000
    575.19,  2734.50000,  1230.90000
    575.66,  2728.00000,  1234.70000
    576.13,  2722.90000,  1239.30000
    576.60,  2739.70000,  1240.90000
    577.07,  2764.00000,  1236.50000
    577.53,  2778.00000,  1217.00000
    578.00,  2770.30000,  1215.00000
    578.47,  2753.60000,  1209.30000
    578.94,  2725.00000,  1209.50000
    579.41,  2712.50000,  1232.90000
    579.88,  2725.80000,  1234.20000
    580.35,  2731.90000,  1233.60000
    580.82,  2739.70000,  1244.90000
    581.28,  2751.80000,  1233.50000
    581.75,  2747.20000,  1223.40000
    582.22,  2740.50000,  1235.00000
    582.69,  2740.40000,  1237.20000
    583.16,  2735.90000,  1242.50000
    583.63,  2731.20000,  1267.90000
    584.10,  2758.00000,  1247.80000
    584.56,  2765.20000,  1236.80000
    585.03,  2752.20000,  1236.90000
    585.50,  2739.50000,  1222.00000
    585.97,  2721.70000,  1227.60000
    586.44,  2724.70000,  1236.90000
    586.91,  2744.10000,  1217.60000
    587.37,  2736.00000,  1223.20000
    587.84,  2718.80000,  1228.50000
    588.31,  2704.00000,  1223.40000
    588.78,  2688.40000,  1252.70000
    589.25,  2711.00000,  1239.20000
    589.72,  2716.70000,  1245.50000
    590.18,  2739.00000,  1237.00000
    590.65,  2756.20000,  1211.90000
    591.12,  2746.20000,  1219.00000
    591.59,  2739.80000,  1219.10000
    592.06,  2714.30000,  1219.20000
    592.52,  2691.60000,  1247.10000
    592.99,  2699.90000,  1237.30000
    593.46,  2685.70000,  1223.40000
    593.93,  2664.40000,  1255.20000
    594.40,  2690.30000,  1247.20000
    594.86,  2710.60000,  1237.90000
    595.33,  2732.20000,  1232.80000
    595.80,  2747.50000,  1219.70000
    596.27,  2736.70000,  1216.30000
    596.74,  2722.80000,  1228.80000
    597.20,  2719.80000,  1232.90000
    597.67,  2725.30000,  1217.30000
    598.14,  2708.10000,  1221.00000
    598.61,  2703.10000,  1223.10000
    599.07,  2703.80000,  1206.10000
    599.54,  2697.60000,  1206.60000
    600.01,  2707.20000,  1235.80000
    600.48,  2757.00000,  1226.90000
    600.95,  2774.50000,  1231.50000
    601.41,  2780.00000,  1211.60000
    601.88,  2754.20000,  1174.90000
    602.35,  2696.20000,  1171.90000
    602.82,  2668.70000,  1191.00000
    603.28,  2682.50000,  1180.00000
    603.75,  2690.60000,  1200.30000
    604.22,  2711.10000,  1194.80000
    604.69,  2713.00000,  1201.30000
    605.15,  2716.00000,  1196.60000
    605.62,  2713.30000,  1201.70000
    606.09,  2713.30000,  1192.20000
    606.56,  2706.20000,  1194.10000
    607.02,  2702.70000,  1183.30000
    607.49,  2700.90000,  1192.50000
    607.96,  2720.60000,  1175.70000
    608.42,  2737.20000,  1198.40000
    608.89,  2779.10000,  1184.60000
    609.36,  2785.70000,  1168.60000
    609.83,  2763.10000,  1165.80000
    610.29,  2723.90000,  1175.80000
    610.76,  2701.10000,  1175.10000
    611.23,  2702.10000,  1183.50000
    611.69,  2724.10000,  1164.00000
    612.16,  2724.20000,  1154.60000
    612.63,  2721.20000,  1145.30000
    613.10,  2695.50000,  1160.20000
    613.56,  2688.70000,  1170.10000
    614.03,  2703.50000,  1164.10000
    614.50,  2716.50000,  1165.80000
    614.96,  2728.80000,  1162.00000
    615.43,  2745.40000,  1154.10000
    615.90,  2749.80000,  1148.70000
    616.36,  2744.20000,  1134.60000
    616.83,  2720.20000,  1146.00000
    617.30,  2701.50000,  1146.70000
    617.76,  2680.20000,  1153.80000
    618.23,  2670.30000,  1157.40000
    618.70,  2675.80000,  1147.90000
    619.16,  2690.10000,  1137.10000
    619.63,  2686.60000,  1145.70000
    620.10,  2691.40000,  1136.70000
    620.56,  2692.60000,  1150.30000
    621.03,  2708.90000,  1145.80000
    621.50,  2717.70000,  1135.70000
    621.96,  2723.40000,  1136.00000
    622.43,  2725.80000,  1135.00000
    622.90,  2732.20000,  1136.30000
    623.36,  2734.30000,  1133.40000
    623.83,  2736.70000,  1129.30000
    624.30,  2730.20000,  1133.10000
    624.76,  2728.90000,  1136.70000
    625.23,  2735.20000,  1141.20000
    625.70,  2744.30000,  1134.50000
    626.16,  2733.00000,  1109.60000
    626.63,  2703.60000,  1118.50000
    627.09,  2699.60000,  1136.30000
    627.56,  2707.30000,  1133.50000
    628.03,  2713.20000,  1139.20000
    628.49,  2718.30000,  1120.60000
    628.96,  2704.90000,  1121.60000
    629.43,  2695.10000,  1124.50000
    629.89,  2695.50000,  1134.30000
    630.36,  2695.00000,  1132.00000
    630.82,  2692.50000,  1134.20000
    631.29,  2690.60000,  1117.10000
    631.76,  2678.80000,  1110.70000
    632.22,  2674.20000,  1112.90000
    632.69,  2690.90000,  1107.20000
    633.15,  2718.00000,  1102.70000
    633.62,  2742.10000,  1101.20000
    634.09,  2748.00000,  1106.10000
    634.55,  2730.90000,  1106.80000
    635.02,  2706.20000,  1121.20000
    635.48,  2701.30000,  1112.50000
    635.95,  2704.60000,  1100.90000
    636.42,  2707.10000,  1088.50000
    636.88,  2695.30000,  1096.20000
    637.35,  2694.00000,  1103.00000
    637.81,  2709.70000,  1094.90000
    638.28,  2721.90000,  1092.50000
    638.74,  2739.40000,  1077.70000
    639.21,  2740.70000,  1067.10000
    639.68,  2713.90000,  1061.50000
    640.14,  2695.70000,  1072.70000
    640.61,  2695.90000,  1058.50000
    641.07,  2685.20000,  1071.30000
    641.54,  2702.70000,  1072.80000
    642.00,  2719.70000,  1080.20000
    642.47,  2731.60000,  1071.20000
    642.93,  2730.80000,  1073.30000
    643.40,  2728.40000,  1063.60000
    643.87,  2717.40000,  1064.00000
    644.33,  2722.80000,  1064.50000
    644.80,  2721.70000,  1051.30000
    645.26,  2706.10000,  1049.90000
    645.73,  2696.80000,  1050.60000
    646.19,  2688.90000,  1059.90000
    646.66,  2691.50000,  1063.50000
    647.12,  2693.10000,  1081.60000
    647.59,  2701.60000,  1085.60000
    648.05,  2704.10000,  1077.20000
    648.52,  2703.20000,  1066.20000
    648.98,  2693.60000,  1056.10000
    649.45,  2679.60000,  1048.90000
    649.91,  2668.90000,  1055.70000
    650.38,  2685.00000,  1077.80000
    650.84,  2712.80000,  1063.60000
    651.31,  2708.00000,  1076.00000
    651.77,  2696.40000,  1073.50000
    652.24,  2666.50000,  1084.10000
    652.70,  2653.50000,  1080.90000
    653.17,  2655.90000,  1093.10000
    653.63,  2676.30000,  1073.60000
    654.10,  2677.30000,  1083.40000
    654.56,  2693.30000,  1064.60000
    655.03,  2695.00000,  1061.40000
    655.49,  2702.60000,  1050.00000
    655.96,  2697.30000,  1050.20000
    656.42,  2681.00000,  1061.40000
    656.89,  2683.10000,  1097.70000
    657.35,  2735.80000,  1089.50000
    657.82,  2780.20000,  1068.30000
    658.28,  2805.20000,  1059.70000
    658.75,  2800.90000,  1033.10000
    659.21,  2757.60000,  1038.50000
    659.68,  2736.20000,  1041.20000
    660.14,  2719.90000,  1021.90000
    660.61,  2706.20000,  1044.50000
    661.07,  2730.90000,  1048.70000
    661.53,  2742.50000,  1060.70000
    662.00,  2752.70000,  1047.00000
    662.46,  2749.70000,  1031.60000
    662.93,  2728.80000,  1009.60000
    663.39,  2716.20000,  1026.80000
    663.86,  2737.40000,  1016.90000
    664.32,  2737.00000,  1037.50000
    664.79,  2743.10000,  1028.00000
    665.25,  2725.40000,  1026.10000
    665.71,  2698.60000,  1019.20000
    666.18,  2689.20000,  1023.40000
    666.64,  2709.70000,  1011.00000
    667.11,  2716.10000,  1023.80000
    667.57,  2731.40000,  1025.90000
    668.04,  2737.60000,  1009.90000
    668.50,  2722.40000,  1008.70000
    668.96,  2715.80000,  1020.20000
    669.43,  2734.50000,   992.50000
    669.89,  2709.60000,  1000.20000
    670.36,  2694.60000,   997.10000
    670.82,  2693.20000,   998.20000
    671.28,  2697.30000,  1005.90000
    671.75,  2706.60000,  1017.50000
    672.21,  2733.70000,  1010.40000
    672.68,  2738.50000,  1013.30000
    673.14,  2753.70000,  1013.50000
    673.60,  2757.30000,  1005.90000
    674.07,  2736.70000,   999.20000
    674.53,  2704.60000,   999.00000
    675.00,  2688.60000,  1006.60000
    675.46,  2683.60000,  1000.00000
    675.92,  2701.60000,  1001.40000
    676.39,  2732.30000,   981.80000
    676.85,  2735.80000,   988.30000
    677.31,  2733.00000,   982.80000
    677.78,  2730.10000,   980.40000
    678.24,  2713.30000,   975.80000
    678.70,  2694.20000,   972.10000
    679.17,  2676.70000,   972.10000
    679.63,  2660.30000,   986.30000
    680.10,  2665.90000,   990.60000
    680.56,  2689.40000,   978.60000
    681.02,  2702.40000,   988.90000
    681.49,  2721.00000,   981.40000
    681.95,  2719.00000,   971.10000
    682.41,  2712.00000,   964.20000
    682.88,  2700.80000,   965.70000
    683.34,  2696.40000,   951.90000
    683.80,  2685.90000,   968.50000
    684.27,  2696.20000,   976.90000
    684.73,  2701.40000,   985.00000
    685.19,  2718.90000,   991.90000
    685.66,  2735.50000,   976.20000
    686.12,  2746.50000,   963.90000
    686.58,  2751.60000,   952.90000
    687.05,  2744.60000,   945.30000
    687.51,  2725.80000,   952.60000
    687.97,  2716.70000,   958.60000
    688.44,  2721.50000,   954.60000
    688.90,  2716.90000,   955.70000
    689.36,  2718.60000,   952.20000
    689.83,  2725.80000,   949.50000
    690.29,  2734.70000,   957.00000
    690.75,  2746.00000,   950.20000
    691.21,  2752.30000,   937.50000
    691.68,  2729.80000,   933.30000
    692.14,  2712.20000,   940.10000
    692.60,  2712.30000,   937.50000
    693.07,  2702.70000,   962.60000
    693.53,  2721.60000,   962.80000
    693.99,  2734.90000,   954.20000
    694.45,  2742.10000,   953.30000
    694.92,  2756.50000,   945.80000
    695.38,  2760.60000,   930.40000
    695.84,  2744.80000,   926.20000
    696.31,  2737.90000,   936.90000
    696.77,  2742.50000,   937.20000
    697.23,  2738.40000,   937.20000
    697.69,  2731.10000,   931.80000
    698.16,  2714.20000,   920.10000
    698.62,  2701.40000,   907.60000
    699.08,  2687.40000,   917.50000
    699.54,  2687.40000,   925.20000
    700.01,  2676.90000,   928.60000
    700.47,  2670.70000,   931.30000
    700.93,  2679.30000,   923.10000
    701.39,  2694.00000,   926.00000
    701.86,  2699.80000,   924.00000
    702.32,  2693.80000,   941.90000
    702.78,  2693.10000,   935.60000
    703.24,  2698.80000,   923.50000
    703.71,  2711.10000,   920.00000
    704.17,  2718.90000,   908.40000
    704.63,  2710.00000,   907.60000
    705.09,  2704.80000,   937.10000
    705.56,  2723.20000,   920.80000
    706.02,  2724.80000,   901.50000
    706.48,  2706.50000,   914.00000
    706.94,  2698.70000,   899.60000
    707.40,  2678.90000,   914.10000
    707.87,  2678.00000,   932.90000
    708.33,  2685.10000,   916.20000
    708.79,  2669.50000,   903.90000
    709.25,  2654.30000,   917.10000
    709.72,  2670.20000,   915.90000
    710.18,  2678.20000,   916.10000
    710.64,  2678.70000,   915.40000
    711.10,  2682.80000,   917.10000
    711.56,  2694.70000,   924.00000
    712.03,  2719.60000,   923.90000
    712.49,  2739.10000,   927.10000
    712.95,  2746.40000,   909.10000
    713.41,  2733.10000,   905.80000
    713.87,  2729.40000,   909.70000
    714.33,  2725.50000,   913.00000
    714.80,  2706.20000,   901.50000
    715.26,  2671.60000,   921.80000
    715.72,  2670.80000,   913.70000
    716.18,  2677.70000,   913.60000
    716.64,  2688.20000,   912.50000
    717.11,  2687.60000,   908.70000
    717.57,  2673.40000,   899.10000
    718.03,  2654.00000,   909.90000
    718.49,  2674.60000,   922.30000
    718.95,  2717.30000,   897.50000
    719.41,  2713.80000,   887.80000
    719.87,  2692.20000,   893.20000
    720.34,  2686.90000,   898.20000
    720.80,  2683.10000,   898.20000
    721.26,  2686.70000,   921.20000
    721.72,  2707.30000,   897.80000
    722.18,  2689.10000,   891.40000
    722.64,  2674.70000,   894.60000
    723.10,  2688.20000,   889.00000
    723.57,  2695.60000,   893.90000
    724.03,  2695.30000,   895.70000
    724.49,  2676.50000,   896.10000
    724.95,  2667.80000,   938.30000
    725.41,  2724.10000,   933.80000
    725.87,  2770.90000,   913.00000
    726.33,  2790.30000,   902.10000
    726.80,  2787.60000,   869.60000
    727.26,  2736.50000,   850.70000
    727.72,  2682.90000,   884.30000
    728.18,  2680.60000,   881.60000
    728.64,  2673.80000,   889.20000
    729.10,  2684.90000,   893.00000
    729.56,  2697.10000,   904.00000
    730.02,  2733.30000,   871.30000
    730.48,  2742.80000,   858.30000
    730.94,  2735.10000,   856.30000
    731.41,  2717.70000,   859.10000
    731.87,  2682.50000,   871.40000
    732.33,  2654.00000,   916.30000
    732.79,  2683.40000,   897.10000
    733.25,  2690.20000,   898.00000
    733.71,  2707.10000,   891.20000
    734.17,  2715.50000,   873.60000
    734.63,  2692.10000,   858.80000
    735.09,  2676.40000,   866.60000
    735.55,  2671.40000,   863.90000
    736.01,  2662.50000,   874.70000
    736.47,  2676.80000,   872.50000
    736.94,  2688.80000,   880.60000
    737.40,  2702.70000,   866.90000
    737.86,  2703.20000,   872.60000
    738.32,  2702.20000,   884.90000
    738.78,  2705.10000,   872.50000
    739.24,  2697.60000,   871.90000
    739.70,  2702.10000,   888.30000
    740.16,  2731.20000,   875.30000
    740.62,  2744.00000,   876.00000
    741.08,  2757.70000,   865.30000
    741.54,  2742.90000,   859.70000
    742.00,  2711.40000,   864.60000
    742.46,  2678.00000,   869.00000
    742.92,  2659.80000,   873.80000
    743.38,  2660.70000,   864.40000
    743.84,  2669.20000,   865.50000
    744.30,  2677.60000,   872.60000
    744.76,  2685.50000,   876.70000
    745.22,  2683.70000,   865.20000
    745.68,  2669.60000,   870.60000
    746.14,  2669.20000,   868.10000
    746.60,  2673.30000,   881.10000
    747.06,  2675.70000,   874.40000
    747.52,  2669.10000,   896.30000
    747.98,  2684.60000,   881.70000
    748.44,  2687.40000,   871.30000
    748.90,  2686.20000,   876.70000
    749.36,  2697.80000,   871.30000
    749.82,  2708.70000,   866.60000
    750.28,  2721.30000,   871.50000
    750.74,  2733.60000,   860.60000
    751.20,  2725.30000,   851.40000
    751.66,  2703.80000,   857.40000
    752.12,  2684.80000,   869.80000
    752.58,  2693.60000,   876.30000
    753.04,  2713.80000,   886.60000
    753.50,  2730.40000,   869.10000
    753.96,  2707.60000,   854.80000
    754.42,  2679.60000,   855.80000
    754.88,  2655.20000,   873.70000
    755.34,  2666.10000,   883.70000
    755.80,  2691.60000,   891.60000
    756.26,  2711.50000,   880.60000
    756.72,  2715.20000,   870.50000
    757.18,  2706.20000,   866.10000
    757.64,  2691.50000,   856.20000
    758.10,  2664.80000,   862.30000
    758.56,  2650.70000,   882.80000
    759.02,  2653.50000,   883.40000
    759.48,  2660.20000,   884.90000
    759.94,  2669.70000,   875.80000
    760.40,  2680.60000,   866.60000
    760.86,  2679.10000,   869.50000
    761.32,  2688.30000,   889.40000
    761.78,  2702.40000,   873.00000
    762.24,  2692.70000,   874.40000
    762.70,  2692.50000,   857.80000
    763.15,  2689.30000,   855.40000
    763.61,  2693.70000,   860.20000
    764.07,  2693.50000,   871.70000
    764.53,  2697.00000,   876.00000
    764.99,  2709.90000,   877.70000
    765.45,  2721.90000,   862.20000
    765.91,  2709.00000,   858.60000
    766.37,  2690.60000,   863.90000
    766.83,  2668.40000,   869.70000
    767.29,  2668.50000,   864.30000
    767.75,  2677.30000,   871.20000
    768.21,  2693.10000,   872.00000
    768.66,  2697.40000,   878.20000
    769.12,  2695.40000,   874.70000
    769.58,  2677.70000,   872.90000
    770.04,  2663.50000,   857.60000
    770.50,  2645.90000,   854.40000
    770.96,  2648.10000,   867.60000
    771.42,  2673.60000,   865.10000
    771.88,  2686.30000,   864.00000
    772.34,  2687.70000,   858.50000
    772.80,  2667.70000,   862.00000
    773.25,  2649.10000,   866.80000
    773.71,  2638.70000,   869.70000
    774.17,  2644.20000,   876.20000
    774.63,  2664.40000,   873.20000
    775.09,  2682.80000,   849.20000
    775.55,  2663.70000,   851.90000
    776.01,  2644.10000,   867.80000
    776.47,  2640.10000,   857.40000
    776.92,  2632.60000,   878.70000
    777.38,  2650.20000,   872.50000
    777.84,  2656.70000,   861.00000
    778.30,  2650.20000,   863.60000
    778.76,  2647.60000,   886.70000
    779.22,  2666.50000,   880.20000
    779.68,  2668.00000,   884.10000
    780.13,  2669.50000,   866.20000
    780.59,  2654.60000,   859.60000
    781.05,  2649.90000,   859.70000
    781.51,  2655.70000,   868.30000
    781.97,  2669.70000,   866.10000
    782.43,  2679.60000,   870.50000
    782.88,  2692.90000,   858.70000
    783.34,  2689.90000,   861.50000
    783.80,  2696.60000,   863.00000
    784.26,  2698.80000,   852.50000
    784.72,  2683.10000,   851.70000
    785.18,  2665.50000,   859.50000
    785.63,  2661.20000,   868.20000
    786.09,  2679.80000,   887.10000
    786.55,  2709.40000,   886.60000
    787.01,  2715.50000,   870.50000
    787.47,  2689.90000,   866.30000
    787.92,  2662.50000,   861.50000
    788.38,  2641.60000,   852.40000
    788.84,  2639.50000,   863.90000
    789.30,  2653.80000,   863.10000
    789.76,  2661.30000,   860.50000
    790.21,  2662.10000,   859.30000
    790.67,  2658.20000,   859.60000
    791.13,  2653.30000,   850.50000
    791.59,  2639.00000,   861.80000
    792.05,  2642.10000,   868.30000
    792.50,  2655.60000,   868.20000
    792.96,  2662.40000,   847.80000
    793.42,  2648.70000,   854.80000
    793.88,  2645.50000,   842.70000
    794.33,  2630.90000,   855.70000
    794.79,  2635.00000,   865.70000
    795.25,  2642.90000,   872.40000
    795.71,  2654.40000,   865.70000
    796.17,  2668.60000,   860.60000
    796.62,  2667.70000,   841.10000
    797.08,  2648.40000,   849.00000
    797.54,  2644.40000,   847.90000
    798.00,  2631.60000,   858.30000
    798.45,  2639.00000,   858.30000
    798.91,  2654.10000,   858.30000
    799.37,  2655.00000,   851.00000
    799.83,  2643.90000,   845.90000
    800.28,  2634.60000,   848.60000
    800.74,  2632.20000,   865.90000
    801.20,  2649.30000,   851.00000
    801.66,  2639.60000,   869.10000
    802.11,  2651.50000,   868.00000
    802.57,  2652.40000,   852.00000
    803.03,  2631.90000,   845.50000
    803.48,  2639.30000,   861.90000
    803.94,  2687.80000,   841.30000
    804.40,  2705.50000,   844.30000
    804.86,  2719.10000,   836.70000
    805.31,  2692.00000,   833.80000
    805.77,  2641.00000,   833.10000
    806.23,  2613.10000,   863.00000
    806.69,  2636.00000,   855.10000
    807.14,  2654.90000,   848.10000
    807.60,  2675.40000,   832.90000
    808.06,  2674.90000,   835.50000
    808.51,  2659.50000,   828.80000
    808.97,  2631.20000,   851.20000
    809.43,  2625.80000,   853.60000
    809.88,  2621.20000,   847.20000
    810.34,  2627.40000,   849.10000
    810.80,  2651.80000,   843.60000
    811.26,  2661.60000,   821.50000
    811.71,  2653.50000,   844.00000
    812.17,  2659.60000,   845.20000
    812.63,  2648.30000,   840.80000
    813.08,  2633.40000,   859.60000
    813.54,  2642.80000,   858.60000
    814.00,  2646.80000,   846.00000
    814.45,  2646.40000,   858.90000
    814.91,  2659.20000,   839.10000
    815.37,  2648.00000,   838.30000
    815.82,  2635.10000,   844.40000
    816.28,  2628.70000,   843.90000
    816.74,  2622.90000,   823.70000
    817.19,  2613.80000,   832.90000
    817.65,  2639.60000,   821.90000
    818.11,  2656.60000,   821.90000
    818.56,  2656.20000,   823.70000
    819.02,  2642.80000,   840.00000
    819.48,  2629.50000,   825.20000
    819.93,  2605.70000,   849.80000
    820.39,  2630.30000,   854.00000
    820.84,  2661.50000,   841.80000
    821.30,  2683.30000,   826.90000
    821.76,  2685.60000,   833.90000
    822.21,  2686.40000,   818.90000
    822.67,  2652.40000,   814.40000
    823.13,  2632.60000,   850.90000
    823.58,  2656.90000,   841.90000
    824.04,  2673.20000,   827.90000
    824.49,  2671.70000,   835.90000
    824.95,  2679.40000,   832.30000
    825.41,  2674.70000,   819.20000
    825.86,  2663.50000,   856.20000
    826.32,  2677.30000,   836.10000
    826.78,  2654.10000,   831.70000
    827.23,  2627.60000,   832.00000
    827.69,  2612.00000,   836.00000
    828.14,  2624.00000,   844.30000
    828.60,  2648.50000,   845.80000
    829.06,  2666.40000,   831.40000
    829.51,  2666.20000,   830.50000
    829.97,  2672.80000,   818.50000
    830.42,  2662.80000,   811.60000
    830.88,  2646.10000,   822.90000
    831.34,  2649.50000,   831.80000
    831.79,  2663.40000,   825.90000
    832.25,  2660.70000,   823.90000
    832.70,  2663.90000,   827.50000
    833.16,  2666.20000,   822.30000
    833.61,  2653.10000,   819.90000
    834.07,  2652.10000,   812.50000
    834.53,  2655.60000,   799.40000
    834.98,  2642.30000,   790.90000
    835.44,  2635.40000,   803.40000
    835.89,  2644.10000,   814.10000
    836.35,  2658.80000,   819.80000
    836.80,  2674.40000,   801.00000
    837.26,  2658.70000,   795.60000
    837.71,  2640.10000,   798.70000
    838.17,  2628.00000,   804.40000
    838.63,  2619.50000,   816.20000
    839.08,  2620.90000,   828.50000
    839.54,  2631.00000,   821.30000
    839.99,  2631.00000,   824.00000
    840.45,  2646.40000,   826.60000
    840.90,  2664.10000,   824.50000
    841.36,  2675.60000,   814.40000
    841.81,  2666.40000,   810.00000
    842.27,  2649.10000,   806.90000
    842.72,  2637.10000,   811.90000
    843.18,  2627.00000,   811.50000
    843.63,  2614.60000,   808.80000
    844.09,  2619.60000,   798.50000
    844.55,  2620.80000,   786.60000
    845.00,  2623.30000,   788.40000
    845.46,  2639.00000,   787.30000
    845.91,  2647.10000,   796.60000
    846.37,  2659.00000,   803.20000
    846.82,  2670.50000,   816.50000
    847.28,  2661.10000,   795.30000
    847.73,  2639.30000,   820.70000
    848.19,  2659.80000,   813.20000
    848.64,  2671.90000,   815.90000
    849.10,  2686.20000,   805.50000
    849.55,  2682.60000,   802.20000
    850.01,  2665.30000,   772.40000
    850.46,  2638.70000,   793.90000
    850.92,  2652.70000,   795.90000
    851.37,  2659.30000,   802.00000
    851.83,  2658.40000,   799.00000
    852.28,  2654.40000,   793.10000
    852.73,  2635.80000,   785.70000
    853.19,  2610.60000,   794.00000
    853.64,  2613.90000,   792.30000
    854.10,  2624.80000,   796.50000
    854.55,  2636.80000,   795.10000
    855.01,  2641.40000,   786.00000
    855.46,  2615.70000,   801.10000
    855.92,  2592.70000,   811.30000
    856.37,  2594.70000,   803.20000
    856.83,  2602.00000,   815.20000
    857.28,  2622.40000,   807.00000
    857.74,  2631.20000,   792.30000
    858.19,  2639.10000,   794.20000
    858.64,  2643.50000,   786.20000
    859.10,  2634.90000,   775.80000
    859.55,  2634.40000,   808.50000
    860.01,  2673.80000,   810.90000
    860.46,  2684.70000,   801.70000
    860.92,  2685.60000,   795.00000
    861.37,  2677.00000,   795.10000
    861.83,  2659.00000,   778.80000
    862.28,  2642.00000,   796.90000
    862.73,  2652.50000,   788.30000
    863.19,  2638.40000,   785.90000
    863.64,  2625.50000,   784.80000
    864.10,  2625.50000,   800.00000
    864.55,  2638.40000,   793.40000
    865.01,  2640.80000,   804.90000
    865.46,  2647.70000,   795.20000
    865.91,  2635.90000,   793.90000
    866.37,  2625.50000,   794.80000
    866.82,  2617.00000,   798.70000
    867.28,  2610.00000,   797.40000
    867.73,  2613.90000,   804.10000
    868.18,  2640.70000,   789.60000
    868.64,  2655.40000,   792.20000
    869.09,  2679.80000,   793.30000
    869.55,  2684.80000,   789.60000
    870.00,  2660.20000,   801.70000
    870.45,  2658.60000,   775.10000
    870.91,  2649.70000,   757.60000
    871.36,  2638.90000,   769.00000
    871.81,  2655.40000,   778.50000
    872.27,  2660.00000,   784.50000
    872.72,  2634.90000,   812.80000
    873.18,  2631.50000,   798.60000
    873.63,  2615.20000,   804.20000
    874.08,  2613.40000,   813.10000
    874.54,  2623.20000,   806.10000
    874.99,  2617.60000,   791.90000
    875.44,  2597.60000,   800.50000
    875.90,  2591.70000,   806.10000
    876.35,  2608.00000,   816.60000
    876.81,  2646.70000,   812.60000
    877.26,  2662.00000,   794.30000
    877.71,  2639.40000,   794.20000
    878.17,  2619.20000,   825.50000
    878.62,  2639.90000,   820.30000
    879.07,  2662.40000,   815.10000
    879.53,  2681.90000,   794.10000
    879.98,  2668.40000,   787.00000
    880.43,  2648.50000,   786.50000
    880.89,  2637.00000,   799.10000
    881.34,  2644.20000,   798.40000
    881.79,  2651.90000,   799.30000
    882.25,  2636.60000,   805.80000
    882.70,  2611.50000,   819.90000
    883.15,  2606.20000,   825.70000
    883.61,  2611.40000,   804.30000
    884.06,  2605.30000,   809.90000
    884.51,  2623.70000,   789.70000
    884.97,  2614.70000,   803.50000
    885.42,  2625.10000,   804.20000
    885.87,  2628.20000,   818.30000
    886.32,  2632.60000,   802.00000
    886.78,  2616.70000,   818.00000
    887.23,  2622.30000,   808.40000
    887.68,  2621.20000,   808.50000
    888.14,  2622.70000,   805.10000
    888.59,  2608.50000,   800.70000
    889.04,  2584.50000,   797.40000
    889.50,  2564.90000,   827.00000
    889.95,  2588.90000,   829.40000
    890.40,  2624.50000,   813.70000
    890.85,  2638.80000,   801.10000
    891.31,  2639.20000,   790.20000
    891.76,  2623.70000,   791.60000
    892.21,  2605.80000,   821.40000
    892.67,  2609.40000,   823.10000
    893.12,  2613.60000,   829.80000
    893.57,  2622.40000,   829.50000
    894.02,  2641.40000,   823.30000
    894.48,  2657.00000,   814.50000
    894.93,  2656.60000,   812.50000
    895.38,  2654.10000,   796.20000
    895.83,  2638.60000,   808.70000
    896.29,  2628.70000,   813.10000
    896.74,  2631.40000,   820.20000
    897.19,  2641.50000,   824.80000
    897.64,  2641.40000,   827.80000
    898.10,  2640.40000,   812.70000
    898.55,  2624.80000,   820.10000
    899.00,  2608.20000,   812.30000
    899.45,  2581.80000,   831.00000
    899.91,  2570.20000,   836.30000
    900.36,  2566.90000,   860.30000
    900.81,  2599.20000,   843.60000
    901.26,  2623.40000,   839.40000
    901.72,  2637.40000,   822.20000
    902.17,  2626.00000,   842.60000
    902.62,  2625.60000,   822.90000
    903.07,  2607.60000,   838.10000
    903.52,  2623.00000,   825.10000
    903.98,  2631.50000,   821.60000
    904.43,  2629.60000,   814.40000
    904.88,  2614.60000,   838.10000
    905.33,  2613.10000,   831.90000
    905.79,  2601.70000,   850.40000
    906.24,  2615.10000,   850.90000
    906.69,  2629.00000,   833.30000
    907.14,  2619.40000,   820.70000
    907.59,  2593.40000,   830.80000
    908.05,  2577.20000,   839.20000
    908.50,  2568.20000,   863.00000
    908.95,  2583.80000,   867.20000
    909.40,  2590.70000,   857.30000
    909.85,  2586.90000,   858.00000
    910.31,  2583.20000,   847.90000
    910.76,  2572.30000,   846.90000
    911.21,  2564.70000,   854.60000
    911.66,  2570.00000,   853.30000
    912.11,  2568.20000,   875.70000
    912.56,  2591.50000,   882.50000
    913.02,  2608.90000,   871.70000
    913.47,  2604.50000,   883.70000
    913.92,  2598.00000,   888.20000
    914.37,  2584.60000,   899.40000
    914.82,  2581.10000,   923.10000
    915.27,  2602.90000,   922.50000
    915.73,  2613.80000,   910.70000
    916.18,  2605.10000,   912.10000
    916.63,  2582.90000,   912.90000
    917.08,  2573.30000,   940.20000
    917.53,  2571.10000,   888.00000
    917.98,  2603.80000,  1073.80000
    918.44,  2895.00000,  1023.30000
    918.89,  3032.00000,   991.90000
    919.34,  3030.60000,   961.10000
    919.79,  2917.60000,   942.70000
    920.24,  2709.40000,   889.10000
    920.69,  2528.90000,  1083.40000
    921.14,  2624.20000,  1042.90000
    921.59,  2617.00000,  1071.00000
    922.05,  2612.20000,  1104.50000
    922.50,  2614.00000,  1153.40000
    922.95,  2626.60000,  1203.90000
    923.40,  2644.50000,  1252.50000
    923.85,  2659.60000,  1315.40000
    924.30,  2656.80000,  1402.00000
    924.75,  2638.90000,  1521.50000
    925.20,  2621.10000,  1670.40000
    925.66,  2608.10000,  1853.10000
    926.11,  2608.60000,  2057.60000
    926.56,  2615.30000,  2294.40000
    927.01,  2619.50000,  2528.10000
    927.46,  2607.70000,  2753.40000
    927.91,  2580.80000,  2987.30000
    928.36,  2563.50000,  3254.10000
    928.81,  2573.50000,  3540.80000
    929.26,  2589.90000,  3838.30000
    929.71,  2620.50000,  4111.30000
    930.16,  2637.10000,  4350.00000
    930.62,  2613.20000,  4605.70000
    931.07,  2597.70000,  4842.40000
    931.52,  2599.20000,  5053.00000
    931.97,  2604.90000,  5219.90000
    932.42,  2613.60000,  5382.30000
    932.87,  2624.30000,  5537.40000
    933.32,  2619.50000,  5786.70000
    933.77,  2630.60000,  6063.20000
    934.22,  2631.70000,  6374.60000
    934.67,  2637.10000,  6634.30000
    935.12,  2622.40000,  6823.20000
    935.57,  2597.30000,  6906.40000
    936.02,  2584.20000,  6939.60000
    936.47,  2589.30000,  6861.40000
    936.93,  2576.20000,  6799.40000
    937.38,  2579.50000,  6788.70000
    937.83,  2590.20000,  6820.10000
    938.28,  2583.40000,  6898.50000
    938.73,  2590.00000,  6997.70000
    939.18,  2603.80000,  7050.40000
    939.63,  2606.80000,  7150.60000
    940.08,  2618.70000,  7289.30000
    940.53,  2630.30000,  7422.90000
    940.98,  2616.70000,  7535.70000
    941.43,  2597.60000,  7631.10000
    941.88,  2589.70000,  7702.30000
    942.33,  2591.20000,  7761.30000
    942.78,  2595.60000,  7819.30000
    943.23,  2613.80000,  7876.10000
    943.68,  2617.40000,  7948.40000
    944.13,  2632.30000,  8045.70000
    944.58,  2641.50000,  8107.80000
    945.03,  2624.00000,  8129.10000
    945.48,  2591.40000,  8160.20000
    945.93,  2587.10000,  8221.40000
    946.38,  2590.70000,  8320.80000
    946.83,  2617.10000,  8428.40000
    947.28,  2628.50000,  8504.80000
    947.73,  2622.40000,  8535.40000
    948.18,  2597.90000,  8502.30000
    948.63,  2585.60000,  8475.60000
    949.08,  2576.90000,  8473.90000
    949.53,  2569.40000,  8487.30000
    949.98,  2567.90000,  8503.80000
    950.43,  2582.70000,  8499.70000
    950.88,  2592.00000,  8409.00000
    951.33,  2604.50000,  8299.30000
    951.78,  2623.70000,  8171.30000
    952.23,  2620.40000,  8063.30000
    952.68,  2606.50000,  7969.60000
    953.13,  2611.10000,  7830.30000
    953.58,  2610.50000,  7674.90000
    954.03,  2590.60000,  7532.60000
    954.48,  2579.80000,  7424.10000
    954.93,  2570.60000,  7339.70000
    955.38,  2566.30000,  7297.30000
    955.83,  2589.20000,  7213.00000
    956.28,  2602.80000,  7137.50000
    956.73,  2605.10000,  7039.40000
    957.18,  2601.40000,  6948.00000
    957.62,  2599.80000,  6852.60000
    958.07,  2599.80000,  6720.60000
    958.52,  2592.60000,  6569.30000
    958.97,  2586.20000,  6392.60000
    959.42,  2584.50000,  6189.00000
    959.87,  2583.20000,  5992.20000
    960.32,  2594.60000,  5816.60000
    960.77,  2622.20000,  5623.70000
    961.22,  2656.90000,  5416.50000
    961.67,  2662.70000,  5266.00000
    962.12,  2633.90000,  5144.00000
    962.57,  2609.30000,  5046.20000
    963.02,  2602.10000,  4903.30000
    963.47,  2597.40000,  4772.90000
    963.92,  2618.70000,  4626.70000
    964.36,  2616.10000,  4539.80000
    964.81,  2602.60000,  4475.60000
    965.26,  2603.60000,  4432.30000
    965.71,  2611.40000,  4365.10000
    966.16,  2606.30000,  4304.40000
    966.61,  2597.00000,  4225.90000
    967.06,  2588.40000,  4142.40000
    967.51,  2602.20000,  4022.20000
    967.96,  2613.10000,  3880.40000
    968.41,  2625.20000,  3745.40000
    968.85,  2627.20000,  3616.30000
    969.30,  2617.00000,  3498.50000
    969.75,  2618.80000,  3360.90000
    970.20,  2621.70000,  3207.50000
    970.65,  2624.10000,  3053.50000
    971.10,  2618.40000,  2947.10000
    971.55,  2613.60000,  2846.40000
    972.00,  2589.90000,  2771.90000
    972.44,  2583.50000,  2690.10000
    972.89,  2601.80000,  2589.70000
    973.34,  2620.70000,  2494.60000
    973.79,  2633.30000,  2434.60000
    974.24,  2636.00000,  2366.00000
    974.69,  2609.70000,  2321.30000
    975.14,  2576.90000,  2310.70000
    975.59,  2574.40000,  2265.30000
    976.03,  2561.20000,  2246.00000
    976.48,  2557.80000,  2249.00000
    976.93,  2559.30000,  2244.20000
    977.38,  2562.80000,  2241.90000
    977.83,  2556.60000,  2261.60000
    978.28,  2573.40000,  2242.60000
    978.72,  2586.80000,  2239.90000
    979.17,  2606.90000,  2234.40000
    979.62,  2624.50000,  2218.70000
    980.07,  2626.10000,  2206.80000
    980.52,  2610.10000,  2204.20000
    980.97,  2581.00000,  2195.60000
    981.41,  2540.40000,  2202.00000
    981.86,  2535.40000,  2196.30000
    982.31,  2555.60000,  2160.20000
    982.76,  2576.50000,  2118.50000
    983.21,  2603.40000,  2043.00000
    983.66,  2599.60000,  1972.30000
    984.10,  2576.10000,  1920.90000
    984.55,  2561.40000,  1879.00000
    985.00,  2547.80000,  1834.50000
    985.45,  2532.90000,  1802.70000
    985.90,  2548.20000,  1739.10000
    986.34,  2555.10000,  1673.80000
    986.79,  2552.60000,  1626.40000
    987.24,  2549.00000,  1567.10000
    987.69,  2532.60000,  1532.60000
    988.14,  2536.30000,  1494.30000
    988.58,  2552.10000,  1448.10000
    989.03,  2565.80000,  1409.20000
    989.48,  2570.10000,  1371.10000
    989.93,  2569.40000,  1324.20000
    990.38,  2554.20000,  1308.80000
    990.82,  2564.40000,  1284.90000
    991.27,  2576.00000,  1275.10000
    991.72,  2589.50000,  1243.20000
    992.17,  2580.60000,  1234.50000
    992.61,  2585.70000,  1200.30000
    993.06,  2580.50000,  1198.90000
    993.51,  2595.80000,  1179.20000
    993.96,  2588.60000,  1169.70000
    994.41,  2576.10000,  1141.10000
    994.85,  2562.70000,  1138.50000
    995.30,  2575.50000,  1097.10000
    995.75,  2583.00000,  1097.90000
    996.20,  2606.10000,  1062.80000
    996.64,  2580.10000,  1043.40000
    997.09,  2556.30000,  1036.20000
    997.54,  2548.50000,  1023.00000
    997.99,  2547.50000,  1009.40000
    998.43,  2545.20000,  1006.00000
    998.88,  2551.70000,  1006.40000
    999.33,  2557.20000,  1011.30000
    999.77,  2575.00000,  1006.50000
   1000.22,  2586.20000,  1004.30000
   1000.67,  2600.10000,   988.60000
   1001.12,  2591.30000,   966.50000
   1001.56,  2566.90000,   969.70000
   1002.01,  2559.60000,   974.30000
   1002.46,  2562.60000,   955.80000
   1002.91,  2550.70000,   975.20000
   1003.35,  2556.40000,   963.70000
   1003.80,  2552.80000,   958.50000
   1004.25,  2552.00000,   957.40000
   1004.69,  2551.80000,   949.70000
   1005.14,  2545.60000,   956.30000
   1005.59,  2555.10000,   975.60000
   1006.04,  2576.20000,   979.30000
   1006.48,  2598.90000,   977.00000
   1006.93,  2611.10000,   963.00000
   1007.38,  2594.00000,   943.30000
   1007.82,  2559.30000,   944.50000
   1008.27,  2541.60000,   944.00000
   1008.72,  2536.70000,   947.90000
   1009.16,  2541.20000,   949.30000
   1009.61,  2541.30000,   956.90000
   1010.06,  2550.00000,   973.80000
   1010.50,  2583.00000,   966.80000
   1010.95,  2605.60000,   957.50000
   1011.40,  2609.20000,   938.60000
   1011.85,  2591.30000,   937.60000
   1012.29,  2569.00000,   934.40000
   1012.74,  2545.70000,   948.30000
   1013.19,  2559.00000,   959.10000
   1013.63,  2597.10000,   949.00000
   1014.08,  2614.70000,   934.60000
   1014.53,  2604.30000,   933.20000
   1014.97,  2586.00000,   927.30000
   1015.42,  2551.70000,   934.10000
   1015.86,  2532.60000,   956.70000
   1016.31,  2559.90000,   952.80000
   1016.76,  2580.00000,   936.40000
   1017.20,  2561.00000,   937.80000
   1017.65,  2544.50000,   945.10000
   1018.10,  2536.70000,   945.00000
   1018.54,  2530.70000,   967.10000
   1018.99,  2553.50000,   953.70000
   1019.44,  2566.30000,   934.80000
   1019.88,  2559.30000,   934.70000
   1020.33,  2556.50000,   937.60000
   1020.78,  2561.90000,   943.90000
   1021.22,  2563.00000,   954.50000
   1021.67,  2564.50000,   944.40000
   1022.11,  2563.60000,   939.60000
   1022.56,  2566.40000,   930.70000
   1023.01,  2556.50000,   925.10000
   1023.45,  2542.70000,   936.60000
   1023.90,  2536.80000,   931.70000
   1024.34,  2520.20000,   941.80000
   1024.79,  2526.00000,   949.40000
   1025.24,  2541.50000,   941.00000
   1025.68,  2539.60000,   943.50000
   1026.13,  2541.30000,   951.20000
   1026.58,  2553.60000,   956.30000
   1027.02,  2560.50000,   959.20000
   1027.47,  2567.80000,   950.40000
   1027.91,  2564.80000,   932.60000
   1028.36,  2545.70000,   937.10000
   1028.80,  2534.40000,   929.60000
   1029.25,  2520.60000,   945.80000
   1029.70,  2523.20000,   943.10000
   1030.14,  2517.40000,   943.60000
   1030.59,  2521.80000,   942.10000
   1031.03,  2527.20000,   955.50000
   1031.48,  2552.10000,   955.30000
   1031.93,  2576.20000,   961.80000
   1032.37,  2590.60000,   958.50000
   1032.82,  2586.80000,   966.40000
   1033.26,  2585.20000,   955.40000
   1033.71,  2558.10000,   971.30000
   1034.15,  2553.30000,   963.60000
   1034.60,  2550.80000,   962.90000
   1035.05,  2553.10000,   949.90000
   1035.49,  2546.90000,   956.70000
   1035.94,  2538.30000,   949.90000
   1036.38,  2504.60000,   971.00000
   1036.83,  2487.70000,   979.00000
   1037.27,  2481.10000,   976.90000
   1037.72,  2515.60000,  1007.20000
   1038.16,  2615.40000,   978.00000
   1038.61,  2674.10000,   943.40000
   1039.05,  2672.60000,   940.30000
   1039.50,  2645.80000,   931.60000
   1039.95,  2584.60000,   937.20000
   1040.39,  2535.20000,   987.10000
   1040.84,  2543.00000,   981.70000
   1041.28,  2548.30000,   968.80000
   1041.73,  2549.70000,   957.50000
   1042.17,  2556.90000,   945.10000
   1042.62,  2553.30000,   961.60000
   1043.06,  2545.50000,   967.80000
   1043.51,  2527.40000,   993.80000
   1043.95,  2534.70000,   990.90000
   1044.40,  2530.70000,   983.20000
   1044.84,  2523.80000,   984.60000
   1045.29,  2524.40000,   987.90000
   1045.73,  2529.60000,   977.10000
   1046.18,  2525.80000,   963.40000
   1046.62,  2520.50000,   961.00000
   1047.07,  2501.40000,   962.50000
   1047.51,  2490.30000,   992.20000
   1047.96,  2518.30000,  1012.60000
   1048.40,  2560.30000,  1005.90000
   1048.85,  2575.90000,   984.50000
   1049.29,  2557.00000,   972.80000
   1049.74,  2519.50000,   966.20000
   1050.18,  2495.80000,   985.00000
   1050.63,  2497.30000,  1001.00000
   1051.07,  2514.30000,   997.90000
   1051.52,  2524.50000,   987.70000
   1051.96,  2508.50000,   988.10000
   1052.41,  2501.20000,   996.20000
   1052.85,  2500.50000,  1000.00000
   1053.30,  2494.40000,  1012.40000
   1053.74,  2493.40000,  1011.40000
   1054.18,  2483.80000,  1011.50000
   1054.63,  2468.30000,  1012.70000
   1055.07,  2470.30000,  1016.80000
   1055.52,  2469.10000,  1021.00000
   1055.96,  2471.50000,  1018.90000
   1056.41,  2464.70000,  1019.80000
   1056.85,  2450.60000,  1030.00000
   1057.30,  2449.00000,  1024.40000
   1057.74,  2451.30000,  1018.60000
   1058.18,  2446.40000,  1006.90000
   1058.63,  2439.90000,  1002.60000
   1059.07,  2440.30000,  1013.30000
   1059.52,  2444.90000,  1018.50000
   1059.96,  2447.40000,  1018.10000
   1060.41,  2447.10000,  1025.00000
   1060.85,  2449.50000,  1015.30000
   1061.30,  2442.90000,  1016.00000
   1061.74,  2434.10000,  1028.80000
   1062.18,  2426.60000,  1025.90000
   1062.63,  2411.10000,  1032.00000
   1063.07,  2413.70000,  1040.50000
   1063.52,  2423.80000,  1042.20000
   1063.96,  2442.10000,  1033.60000
   1064.40,  2441.40000,  1032.50000
   1064.85,  2427.50000,  1036.30000
   1065.29,  2399.70000,  1043.00000
   1065.74,  2383.70000,  1045.40000
   1066.18,  2359.30000,  1060.30000
