2D Measure spectrum data V5.74

<< MEASURE 1 >>
Data count = 2048
Exposure time = 30000 msec
Average = 10
Inspected time = 2020/10/23 15:16

Wave-dcm-1,Dark spec.  ,Spectrum
    108.17,  2252.40000,   524.30000
    108.66,  2254.30000,   522.90000
    109.15,  2259.30000,   528.70000
    109.65,  2282.00000,   528.10000
    110.14,  2289.80000,   530.80000
    110.63,  2304.60000,   516.00000
    111.13,  2325.80000,   501.80000
    111.62,  2315.20000,   486.40000
    112.11,  2326.50000,   477.30000
    112.60,  2346.90000,   477.80000
    113.10,  2335.80000,   474.20000
    113.59,  2358.00000,   472.10000
    114.08,  2374.00000,   472.60000
    114.58,  2368.50000,   469.50000
    115.07,  2417.60000,   457.30000
    115.56,  2433.50000,   461.30000
    116.06,  2421.70000,   455.60000
    116.55,  2420.80000,   456.40000
    117.04,  2404.90000,   461.60000
    117.53,  2377.10000,   476.40000
    118.03,  2411.50000,   473.20000
    118.52,  2421.00000,   475.10000
    119.01,  2414.00000,   478.70000
    119.51,  2508.10000,   476.00000
    120.00,  2595.10000,   483.90000
    120.49,  2623.30000,   497.90000
    120.98,  2618.20000,   502.30000
    121.48,  2539.50000,   514.00000
    121.97,  2434.40000,   525.90000
    122.46,  2431.10000,   531.90000
    122.95,  2455.10000,   549.60000
    123.45,  2488.40000,   560.40000
    123.94,  2497.70000,   570.40000
    124.43,  2522.60000,   576.40000
    124.92,  2552.10000,   579.00000
    125.42,  2552.70000,   591.80000
    125.91,  2566.30000,   604.90000
    126.40,  2552.60000,   618.70000
    126.89,  2529.80000,   626.10000
    127.39,  2515.70000,   639.00000
    127.88,  2510.80000,   645.90000
    128.37,  2509.20000,   657.50000
    128.86,  2533.80000,   662.10000
    129.35,  2526.60000,   672.70000
    129.85,  2539.50000,   672.80000
    130.34,  2523.60000,   689.80000
    130.83,  2530.20000,   695.60000
    131.32,  2535.70000,   701.60000
    131.81,  2540.60000,   707.80000
    132.31,  2536.00000,   715.90000
    132.80,  2538.10000,   713.20000
    133.29,  2522.00000,   713.60000
    133.78,  2538.00000,   711.80000
    134.27,  2565.70000,   701.20000
    134.77,  2582.80000,   697.50000
    135.26,  2606.70000,   698.30000
    135.75,  2593.10000,   711.50000
    136.24,  2603.40000,   725.40000
    136.73,  2577.60000,   749.70000
    137.23,  2593.10000,   761.80000
    137.72,  2585.20000,   770.80000
    138.21,  2587.90000,   772.30000
    138.70,  2578.50000,   772.40000
    139.19,  2616.30000,   767.90000
    139.68,  2599.10000,   775.60000
    140.18,  2601.30000,   770.70000
    140.67,  2616.20000,   762.30000
    141.16,  2615.60000,   779.30000
    141.65,  2606.30000,   780.30000
    142.14,  2600.60000,   790.00000
    142.63,  2617.30000,   798.30000
    143.13,  2618.50000,   791.80000
    143.62,  2669.00000,   786.40000
    144.11,  2672.50000,   802.40000
    144.60,  2639.20000,   809.90000
    145.09,  2620.90000,   821.50000
    145.58,  2676.70000,   828.30000
    146.07,  2693.60000,   833.10000
    146.56,  2700.30000,   845.80000
    147.06,  2693.90000,   845.40000
    147.55,  2657.70000,   852.90000
    148.04,  2612.20000,   852.40000
    148.53,  2646.10000,   855.10000
    149.02,  2629.80000,   858.40000
    149.51,  2694.40000,   875.00000
    150.00,  2752.10000,   881.70000
    150.49,  2767.10000,   897.50000
    150.99,  2761.80000,   902.10000
    151.48,  2740.00000,   921.00000
    151.97,  2662.70000,   944.00000
    152.46,  2670.30000,   972.90000
    152.95,  2652.20000,  1004.50000
    153.44,  2648.30000,  1028.30000
    153.93,  2662.80000,  1046.50000
    154.42,  2683.80000,  1066.80000
    154.91,  2661.40000,  1080.40000
    155.40,  2651.70000,  1081.80000
    155.89,  2632.20000,  1083.10000
    156.39,  2655.10000,  1069.50000
    156.88,  2640.40000,  1063.80000
    157.37,  2659.30000,  1062.70000
    157.86,  2660.40000,  1069.00000
    158.35,  2663.90000,  1093.10000
    158.84,  2676.60000,  1111.40000
    159.33,  2720.10000,  1133.00000
    159.82,  2732.50000,  1145.20000
    160.31,  2748.90000,  1166.80000
    160.80,  2779.00000,  1187.80000
    161.29,  2728.50000,  1215.70000
    161.78,  2729.30000,  1196.90000
    162.27,  2712.10000,  1198.30000
    162.76,  2712.00000,  1198.70000
    163.25,  2712.70000,  1220.80000
    163.74,  2723.10000,  1253.50000
    164.23,  2705.90000,  1284.40000
    164.72,  2735.40000,  1296.10000
    165.21,  2722.90000,  1298.10000
    165.70,  2710.90000,  1309.20000
    166.20,  2751.70000,  1317.70000
    166.69,  2768.20000,  1335.20000
    167.18,  2775.60000,  1352.50000
    167.67,  2763.00000,  1384.70000
    168.16,  2737.70000,  1394.70000
    168.65,  2688.30000,  1417.80000
    169.14,  2722.90000,  1426.90000
    169.63,  2716.20000,  1432.10000
    170.12,  2708.60000,  1415.70000
    170.61,  2700.80000,  1398.70000
    171.10,  2749.00000,  1388.90000
    171.59,  2748.80000,  1384.30000
    172.08,  2761.00000,  1379.00000
    172.57,  2760.00000,  1375.40000
    173.06,  2752.90000,  1377.80000
    173.55,  2741.50000,  1377.30000
    174.04,  2714.20000,  1385.80000
    174.53,  2710.60000,  1377.30000
    175.02,  2704.70000,  1373.80000
    175.50,  2736.50000,  1375.70000
    175.99,  2765.30000,  1391.40000
    176.48,  2797.50000,  1403.40000
    176.97,  2772.00000,  1406.70000
    177.46,  2778.70000,  1403.90000
    177.95,  2750.50000,  1397.30000
    178.44,  2727.50000,  1391.30000
    178.93,  2712.30000,  1378.10000
    179.42,  2728.30000,  1365.10000
    179.91,  2751.70000,  1347.30000
    180.40,  2761.40000,  1355.30000
    180.89,  2768.20000,  1353.10000
    181.38,  2749.70000,  1356.30000
    181.87,  2745.60000,  1360.40000
    182.36,  2737.70000,  1359.20000
    182.85,  2714.50000,  1363.90000
    183.34,  2729.60000,  1383.20000
    183.83,  2740.70000,  1394.70000
    184.32,  2737.30000,  1407.40000
    184.81,  2778.60000,  1420.50000
    185.29,  2773.70000,  1411.40000
    185.78,  2745.40000,  1398.30000
    186.27,  2757.40000,  1374.80000
    186.76,  2748.80000,  1354.70000
    187.25,  2720.70000,  1347.40000
    187.74,  2786.30000,  1348.50000
    188.23,  2808.10000,  1349.80000
    188.72,  2831.00000,  1348.00000
    189.21,  2821.80000,  1339.60000
    189.70,  2792.20000,  1336.20000
    190.19,  2754.50000,  1343.30000
    190.67,  2746.40000,  1335.70000
    191.16,  2750.60000,  1342.10000
    191.65,  2755.30000,  1341.30000
    192.14,  2739.10000,  1334.40000
    192.63,  2762.40000,  1324.90000
    193.12,  2771.90000,  1327.00000
    193.61,  2761.60000,  1315.50000
    194.10,  2780.90000,  1321.50000
    194.59,  2770.00000,  1325.50000
    195.07,  2759.70000,  1326.70000
    195.56,  2773.20000,  1325.80000
    196.05,  2760.20000,  1319.60000
    196.54,  2755.10000,  1317.80000
    197.03,  2780.00000,  1310.40000
    197.52,  2819.40000,  1315.40000
    198.01,  2827.40000,  1325.50000
    198.49,  2817.90000,  1347.10000
    198.98,  2800.90000,  1357.30000
    199.47,  2758.40000,  1360.60000
    199.96,  2754.10000,  1342.00000
    200.45,  2770.40000,  1328.20000
    200.94,  2754.60000,  1316.60000
    201.43,  2749.00000,  1318.50000
    201.91,  2736.20000,  1321.50000
    202.40,  2735.30000,  1305.70000
    202.89,  2748.30000,  1287.80000
    203.38,  2775.70000,  1269.20000
    203.87,  2774.80000,  1271.10000
    204.36,  2760.30000,  1273.00000
    204.84,  2752.70000,  1289.80000
    205.33,  2771.00000,  1294.70000
    205.82,  2780.60000,  1297.60000
    206.31,  2778.50000,  1293.00000
    206.80,  2773.70000,  1306.00000
    207.28,  2774.30000,  1318.40000
    207.77,  2786.90000,  1326.70000
    208.26,  2800.50000,  1329.50000
    208.75,  2804.60000,  1317.70000
    209.24,  2779.00000,  1307.40000
    209.72,  2793.70000,  1296.20000
    210.21,  2804.00000,  1304.60000
    210.70,  2794.90000,  1306.20000
    211.19,  2810.00000,  1315.70000
    211.68,  2819.50000,  1322.20000
    212.16,  2814.60000,  1330.00000
    212.65,  2823.10000,  1334.70000
    213.14,  2806.90000,  1340.50000
    213.63,  2799.60000,  1342.90000
    214.12,  2779.60000,  1341.30000
    214.60,  2787.80000,  1356.70000
    215.09,  2801.60000,  1361.80000
    215.58,  2801.20000,  1367.30000
    216.07,  2801.30000,  1362.60000
    216.55,  2811.20000,  1359.90000
    217.04,  2750.20000,  1365.00000
    217.53,  2744.10000,  1384.90000
    218.02,  2742.00000,  1396.60000
    218.50,  2746.50000,  1404.10000
    218.99,  2770.30000,  1413.20000
    219.48,  2798.90000,  1423.00000
    219.97,  2762.10000,  1447.20000
    220.45,  2772.60000,  1465.80000
    220.94,  2768.10000,  1488.50000
    221.43,  2785.10000,  1505.80000
    221.92,  2812.00000,  1522.40000
    222.40,  2811.40000,  1543.00000
    222.89,  2793.30000,  1572.50000
    223.38,  2807.80000,  1607.10000
    223.86,  2822.60000,  1632.20000
    224.35,  2849.80000,  1650.70000
    224.84,  2855.40000,  1662.90000
    225.33,  2844.90000,  1679.60000
    225.81,  2815.40000,  1691.40000
    226.30,  2793.00000,  1711.90000
    226.79,  2787.70000,  1719.80000
    227.27,  2778.70000,  1729.80000
    227.76,  2780.20000,  1739.20000
    228.25,  2817.40000,  1739.00000
    228.74,  2836.50000,  1741.60000
    229.22,  2851.70000,  1744.40000
    229.71,  2844.20000,  1733.10000
    230.20,  2820.80000,  1723.20000
    230.68,  2809.80000,  1709.50000
    231.17,  2797.70000,  1679.80000
    231.66,  2773.80000,  1655.90000
    232.14,  2769.80000,  1624.00000
    232.63,  2764.60000,  1597.90000
    233.12,  2785.10000,  1582.00000
    233.60,  2806.20000,  1566.20000
    234.09,  2781.00000,  1543.60000
    234.58,  2762.30000,  1521.90000
    235.06,  2761.80000,  1497.10000
    235.55,  2760.80000,  1470.10000
    236.04,  2761.00000,  1436.80000
    236.52,  2779.80000,  1404.60000
    237.01,  2762.20000,  1385.80000
    237.50,  2798.80000,  1370.40000
    237.98,  2795.00000,  1357.20000
    238.47,  2851.00000,  1333.00000
    238.96,  2854.80000,  1314.70000
    239.44,  2842.10000,  1299.40000
    239.93,  2833.20000,  1293.20000
    240.41,  2800.40000,  1277.80000
    240.90,  2741.70000,  1264.30000
    241.39,  2772.40000,  1252.90000
    241.87,  2813.60000,  1241.50000
    242.36,  2831.50000,  1242.40000
    242.85,  2867.10000,  1239.00000
    243.33,  2855.10000,  1238.20000
    243.82,  2826.70000,  1232.50000
    244.30,  2803.00000,  1228.60000
    244.79,  2811.00000,  1219.70000
    245.28,  2792.50000,  1228.00000
    245.76,  2782.90000,  1237.40000
    246.25,  2764.00000,  1243.70000
    246.74,  2790.00000,  1222.60000
    247.22,  2819.90000,  1215.90000
    247.71,  2822.00000,  1205.60000
    248.19,  2806.10000,  1204.10000
    248.68,  2806.20000,  1208.40000
    249.16,  2771.00000,  1215.20000
    249.65,  2807.90000,  1204.30000
    250.14,  2821.70000,  1207.10000
    250.62,  2796.90000,  1204.30000
    251.11,  2767.60000,  1198.70000
    251.59,  2746.20000,  1203.60000
    252.08,  2734.80000,  1204.90000
    252.57,  2755.70000,  1205.50000
    253.05,  2764.60000,  1203.10000
    253.54,  2805.40000,  1208.90000
    254.02,  2833.60000,  1204.50000
    254.51,  2829.50000,  1210.20000
    254.99,  2823.20000,  1205.80000
    255.48,  2792.30000,  1201.70000
    255.96,  2767.10000,  1189.90000
    256.45,  2799.30000,  1175.80000
    256.94,  2809.10000,  1170.00000
    257.42,  2804.50000,  1163.50000
    257.91,  2802.90000,  1171.80000
    258.39,  2798.30000,  1183.20000
    258.88,  2783.00000,  1187.70000
    259.36,  2808.40000,  1177.00000
    259.85,  2810.80000,  1175.40000
    260.33,  2828.60000,  1164.10000
    260.82,  2841.30000,  1169.30000
    261.30,  2842.40000,  1185.90000
    261.79,  2811.60000,  1189.50000
    262.27,  2794.60000,  1185.60000
    262.76,  2778.20000,  1179.00000
    263.24,  2782.30000,  1172.60000
    263.73,  2807.00000,  1168.40000
    264.22,  2798.90000,  1183.70000
    264.70,  2867.40000,  1181.30000
    265.19,  2890.90000,  1189.50000
    265.67,  2892.50000,  1184.00000
    266.16,  2862.90000,  1183.50000
    266.64,  2838.60000,  1180.70000
    267.13,  2773.80000,  1181.70000
    267.61,  2787.90000,  1171.40000
    268.10,  2802.00000,  1182.40000
    268.58,  2805.40000,  1194.30000
    269.06,  2798.50000,  1208.00000
    269.55,  2817.50000,  1223.40000
    270.03,  2830.10000,  1217.80000
    270.52,  2828.50000,  1209.10000
    271.00,  2842.60000,  1202.50000
    271.49,  2836.70000,  1205.80000
    271.97,  2836.90000,  1203.20000
    272.46,  2843.60000,  1215.70000
    272.94,  2845.40000,  1220.60000
    273.43,  2829.70000,  1234.10000
    273.91,  2801.90000,  1248.00000
    274.40,  2786.70000,  1257.40000
    274.88,  2778.00000,  1259.60000
    275.37,  2778.40000,  1263.50000
    275.85,  2777.00000,  1265.50000
    276.33,  2782.40000,  1261.30000
    276.82,  2797.30000,  1272.00000
    277.30,  2813.40000,  1279.70000
    277.79,  2818.40000,  1286.60000
    278.27,  2829.20000,  1293.70000
    278.76,  2838.80000,  1304.70000
    279.24,  2844.80000,  1306.50000
    279.73,  2839.90000,  1311.40000
    280.21,  2829.00000,  1316.40000
    280.69,  2810.80000,  1318.20000
    281.18,  2806.60000,  1330.30000
    281.66,  2824.20000,  1338.70000
    282.15,  2860.50000,  1358.10000
    282.63,  2848.70000,  1377.40000
    283.11,  2840.40000,  1383.10000
    283.60,  2840.50000,  1385.00000
    284.08,  2850.80000,  1387.40000
    284.57,  2822.60000,  1393.30000
    285.05,  2821.80000,  1403.30000
    285.53,  2790.90000,  1424.80000
    286.02,  2760.10000,  1429.40000
    286.50,  2782.80000,  1432.60000
    286.99,  2810.60000,  1427.30000
    287.47,  2797.10000,  1435.80000
    287.95,  2798.00000,  1430.40000
    288.44,  2792.70000,  1437.60000
    288.92,  2790.90000,  1434.50000
    289.41,  2802.10000,  1435.80000
    289.89,  2830.60000,  1430.00000
    290.37,  2827.20000,  1435.70000
    290.86,  2846.90000,  1435.90000
    291.34,  2810.60000,  1440.00000
    291.82,  2801.70000,  1431.40000
    292.31,  2775.60000,  1439.30000
    292.79,  2792.70000,  1434.60000
    293.28,  2797.10000,  1421.80000
    293.76,  2812.90000,  1419.60000
    294.24,  2813.20000,  1417.90000
    294.73,  2833.10000,  1424.00000
    295.21,  2838.20000,  1422.50000
    295.69,  2840.30000,  1415.00000
    296.18,  2823.10000,  1390.50000
    296.66,  2777.30000,  1382.90000
    297.14,  2769.80000,  1375.60000
    297.63,  2778.90000,  1374.30000
    298.11,  2797.80000,  1363.50000
    298.59,  2829.60000,  1350.80000
    299.08,  2847.50000,  1337.80000
    299.56,  2846.10000,  1328.60000
    300.04,  2864.50000,  1322.50000
    300.53,  2868.00000,  1310.10000
    301.01,  2857.80000,  1309.80000
    301.49,  2849.00000,  1288.60000
    301.98,  2820.50000,  1271.70000
    302.46,  2797.40000,  1260.50000
    302.94,  2794.70000,  1258.60000
    303.42,  2794.20000,  1255.60000
    303.91,  2780.00000,  1246.30000
    304.39,  2765.30000,  1228.70000
    304.87,  2765.40000,  1207.10000
    305.36,  2793.30000,  1193.20000
    305.84,  2828.00000,  1187.70000
    306.32,  2864.00000,  1185.80000
    306.81,  2848.90000,  1179.40000
    307.29,  2819.70000,  1176.10000
    307.77,  2804.70000,  1162.20000
    308.25,  2812.20000,  1154.70000
    308.74,  2826.20000,  1150.20000
    309.22,  2819.40000,  1135.90000
    309.70,  2802.90000,  1127.50000
    310.18,  2791.30000,  1110.40000
    310.67,  2801.40000,  1102.20000
    311.15,  2816.90000,  1101.40000
    311.63,  2830.00000,  1105.60000
    312.12,  2833.40000,  1102.50000
    312.60,  2804.00000,  1106.30000
    313.08,  2776.80000,  1098.70000
    313.56,  2761.00000,  1100.60000
    314.05,  2759.70000,  1088.50000
    314.53,  2783.10000,  1086.30000
    315.01,  2853.20000,  1071.50000
    315.49,  2850.60000,  1068.90000
    315.98,  2852.80000,  1061.90000
    316.46,  2823.20000,  1062.10000
    316.94,  2789.20000,  1055.60000
    317.42,  2775.30000,  1061.50000
    317.90,  2790.20000,  1052.30000
    318.39,  2769.50000,  1051.40000
    318.87,  2815.60000,  1045.10000
    319.35,  2834.50000,  1044.80000
    319.83,  2842.50000,  1046.70000
    320.32,  2852.80000,  1046.90000
    320.80,  2858.40000,  1048.00000
    321.28,  2817.30000,  1040.60000
    321.76,  2849.00000,  1036.60000
    322.24,  2855.70000,  1030.30000
    322.73,  2874.00000,  1021.10000
    323.21,  2877.10000,  1019.30000
    323.69,  2874.40000,  1028.60000
    324.17,  2817.20000,  1022.80000
    324.65,  2779.80000,  1029.70000
    325.14,  2782.30000,  1040.20000
    325.62,  2802.40000,  1030.00000
    326.10,  2851.00000,  1034.50000
    326.58,  2871.00000,  1030.90000
    327.06,  2832.80000,  1022.20000
    327.55,  2849.40000,  1017.70000
    328.03,  2871.20000,  1025.50000
    328.51,  2885.80000,  1016.30000
    328.99,  2901.40000,  1016.00000
    329.47,  2881.10000,  1017.00000
    329.95,  2807.60000,  1015.40000
    330.44,  2810.90000,  1021.20000
    330.92,  2782.80000,  1014.40000
    331.40,  2771.30000,  1020.00000
    331.88,  2766.70000,  1026.10000
    332.36,  2773.80000,  1040.30000
    332.84,  2807.40000,  1027.20000
    333.33,  2844.50000,  1024.10000
    333.81,  2858.50000,   999.20000
    334.29,  2861.10000,   995.60000
    334.77,  2857.30000,   990.30000
    335.25,  2835.70000,  1003.20000
    335.73,  2849.50000,  1003.80000
    336.21,  2843.50000,  1005.10000
    336.69,  2833.00000,  1006.70000
    337.18,  2821.40000,   998.70000
    337.66,  2799.70000,   988.20000
    338.14,  2770.90000,   995.90000
    338.62,  2764.20000,   992.60000
    339.10,  2796.60000,   984.40000
    339.58,  2840.30000,   985.30000
    340.06,  2857.90000,   981.20000
    340.54,  2855.30000,   986.00000
    341.03,  2837.50000,   987.50000
    341.51,  2811.00000,   983.10000
    341.99,  2817.10000,   971.60000
    342.47,  2824.30000,   971.10000
    342.95,  2822.30000,   973.20000
    343.43,  2813.30000,   980.70000
    343.91,  2808.10000,   980.30000
    344.39,  2786.80000,   981.60000
    344.87,  2766.90000,   985.40000
    345.35,  2781.30000,   994.70000
    345.84,  2799.00000,   994.80000
    346.32,  2844.50000,   997.20000
    346.80,  2867.10000,   986.20000
    347.28,  2873.60000,   972.40000
    347.76,  2850.70000,   961.70000
    348.24,  2847.90000,   960.20000
    348.72,  2867.50000,   953.20000
    349.20,  2876.50000,   966.70000
    349.68,  2858.70000,   969.20000
    350.16,  2818.20000,   982.50000
    350.64,  2780.80000,   974.70000
    351.12,  2763.90000,   975.70000
    351.60,  2833.20000,   952.80000
    352.08,  2875.70000,   958.10000
    352.56,  2899.40000,   958.90000
    353.04,  2882.40000,   971.40000
    353.53,  2861.50000,   973.60000
    354.01,  2833.20000,   980.50000
    354.49,  2853.90000,   971.90000
    354.97,  2857.10000,   968.20000
    355.45,  2854.20000,   969.70000
    355.93,  2833.00000,   961.50000
    356.41,  2846.60000,   952.70000
    356.89,  2833.40000,   954.50000
    357.37,  2836.50000,   967.50000
    357.85,  2812.00000,   968.30000
    358.33,  2800.50000,   978.70000
    358.81,  2780.40000,   974.20000
    359.29,  2800.00000,   958.90000
    359.77,  2822.70000,   958.30000
    360.25,  2837.50000,   971.30000
    360.73,  2831.70000,   978.40000
    361.21,  2826.00000,   978.70000
    361.69,  2833.70000,   980.60000
    362.17,  2841.20000,   970.50000
    362.65,  2853.60000,   962.40000
    363.13,  2854.50000,   961.50000
    363.61,  2852.40000,   974.10000
    364.09,  2817.20000,   977.00000
    364.57,  2809.10000,   986.30000
    365.05,  2815.50000,   980.60000
    365.53,  2806.60000,   970.30000
    366.01,  2832.10000,   961.40000
    366.49,  2874.30000,   961.70000
    366.97,  2834.20000,   965.00000
    367.45,  2843.10000,   974.20000
    367.93,  2866.50000,   973.90000
    368.41,  2850.40000,   982.20000
    368.89,  2848.60000,   989.20000
    369.37,  2863.20000,   983.80000
    369.85,  2807.50000,   990.60000
    370.33,  2832.90000,   982.40000
    370.80,  2848.70000,   982.00000
    371.28,  2848.60000,   990.80000
    371.76,  2823.90000,   998.30000
    372.24,  2812.40000,   985.30000
    372.72,  2803.10000,   985.10000
    373.20,  2820.60000,   982.70000
    373.68,  2844.50000,   988.90000
    374.16,  2862.50000,  1002.80000
    374.64,  2837.90000,  1016.10000
    375.12,  2810.00000,  1013.60000
    375.60,  2845.40000,  1006.00000
    376.08,  2827.80000,  1001.80000
    376.56,  2827.30000,   997.60000
    377.04,  2821.90000,  1003.70000
    377.52,  2823.50000,  1008.30000
    377.99,  2813.90000,  1009.30000
    378.47,  2849.50000,   997.00000
    378.95,  2832.30000,   996.00000
    379.43,  2843.80000,  1010.10000
    379.91,  2840.00000,  1022.90000
    380.39,  2884.40000,  1039.40000
    380.87,  2911.10000,  1041.40000
    381.35,  2908.90000,  1025.10000
    381.83,  2877.50000,  1022.50000
    382.31,  2840.60000,  1019.60000
    382.79,  2792.10000,  1025.60000
    383.26,  2798.40000,  1044.60000
    383.74,  2799.50000,  1055.20000
    384.22,  2803.10000,  1049.40000
    384.70,  2815.70000,  1043.10000
    385.18,  2800.00000,  1027.40000
    385.66,  2809.00000,  1021.10000
    386.14,  2815.00000,  1027.30000
    386.62,  2824.40000,  1035.70000
    387.09,  2844.60000,  1038.30000
    387.57,  2858.10000,  1044.90000
    388.05,  2853.60000,  1049.80000
    388.53,  2850.10000,  1048.70000
    389.01,  2843.20000,  1056.90000
    389.49,  2857.70000,  1052.40000
    389.97,  2856.90000,  1047.00000
    390.44,  2843.10000,  1064.80000
    390.92,  2826.90000,  1074.20000
    391.40,  2817.50000,  1069.50000
    391.88,  2816.50000,  1075.50000
    392.36,  2827.40000,  1066.00000
    392.84,  2828.20000,  1063.50000
    393.32,  2839.20000,  1064.60000
    393.79,  2827.30000,  1068.80000
    394.27,  2886.10000,  1066.10000
    394.75,  2891.50000,  1075.20000
    395.23,  2887.70000,  1075.10000
    395.71,  2860.70000,  1088.00000
    396.18,  2858.70000,  1080.10000
    396.66,  2850.70000,  1089.30000
    397.14,  2880.80000,  1092.80000
    397.62,  2846.30000,  1090.70000
    398.10,  2841.80000,  1087.40000
    398.58,  2829.80000,  1086.30000
    399.05,  2850.70000,  1081.90000
    399.53,  2861.70000,  1091.10000
    400.01,  2859.60000,  1099.60000
    400.49,  2837.30000,  1096.90000
    400.97,  2817.60000,  1097.10000
    401.44,  2786.30000,  1087.50000
    401.92,  2814.40000,  1083.20000
    402.40,  2810.40000,  1096.80000
    402.88,  2833.20000,  1102.80000
    403.36,  2844.80000,  1114.20000
    403.83,  2860.60000,  1113.10000
    404.31,  2825.90000,  1107.60000
    404.79,  2842.10000,  1097.50000
    405.27,  2818.90000,  1090.90000
    405.74,  2806.50000,  1077.10000
    406.22,  2830.00000,  1085.20000
    406.70,  2858.90000,  1081.50000
    407.18,  2842.40000,  1093.20000
    407.65,  2835.10000,  1092.60000
    408.13,  2807.60000,  1079.60000
    408.61,  2810.00000,  1067.90000
    409.09,  2825.50000,  1067.50000
    409.56,  2830.00000,  1059.90000
    410.04,  2839.40000,  1071.30000
    410.52,  2829.00000,  1077.90000
    411.00,  2803.90000,  1068.30000
    411.47,  2797.40000,  1063.00000
    411.95,  2782.30000,  1059.60000
    412.43,  2786.10000,  1052.60000
    412.91,  2794.80000,  1054.10000
    413.38,  2815.30000,  1054.70000
    413.86,  2837.60000,  1042.00000
    414.34,  2838.90000,  1035.70000
    414.82,  2837.30000,  1030.40000
    415.29,  2828.00000,  1036.60000
    415.77,  2832.40000,  1037.30000
    416.25,  2838.10000,  1030.30000
    416.72,  2843.20000,  1034.20000
    417.20,  2830.10000,  1031.40000
    417.68,  2791.20000,  1024.20000
    418.16,  2785.30000,  1024.80000
    418.63,  2808.80000,  1018.50000
    419.11,  2815.70000,  1005.30000
    419.59,  2824.70000,  1013.70000
    420.06,  2796.70000,  1007.70000
    420.54,  2767.50000,  1007.60000
    421.02,  2793.60000,  1004.30000
    421.50,  2817.00000,  1001.00000
    421.97,  2825.20000,   997.90000
    422.45,  2817.40000,   994.90000
    422.93,  2797.50000,   990.60000
    423.40,  2782.30000,   989.70000
    423.88,  2786.50000,   983.30000
    424.36,  2792.00000,   983.40000
    424.83,  2803.80000,   985.00000
    425.31,  2825.20000,   975.70000
    425.79,  2874.40000,   983.10000
    426.26,  2921.50000,   974.80000
    426.74,  2904.80000,   971.00000
    427.22,  2881.80000,   971.90000
    427.69,  2859.40000,   967.90000
    428.17,  2831.60000,   965.30000
    428.65,  2813.30000,   965.70000
    429.12,  2850.60000,   958.30000
    429.60,  2838.60000,   950.50000
    430.08,  2846.10000,   948.60000
    430.55,  2852.50000,   952.70000
    431.03,  2848.10000,   959.10000
    431.50,  2846.40000,   955.80000
    431.98,  2845.10000,   956.80000
    432.46,  2851.90000,   949.30000
    432.93,  2832.40000,   947.70000
    433.41,  2807.90000,   950.40000
    433.89,  2797.50000,   953.20000
    434.36,  2807.50000,   953.70000
    434.84,  2800.10000,   949.90000
    435.31,  2826.50000,   951.30000
    435.79,  2830.20000,   946.90000
    436.27,  2820.60000,   946.20000
    436.74,  2815.80000,   944.30000
    437.22,  2823.20000,   940.60000
    437.70,  2815.30000,   940.50000
    438.17,  2814.70000,   938.50000
    438.65,  2817.30000,   930.70000
    439.12,  2819.80000,   941.30000
    439.60,  2816.30000,   952.50000
    440.08,  2822.10000,   960.70000
    440.55,  2802.40000,   974.30000
    441.03,  2824.00000,   960.30000
    441.50,  2830.10000,   947.00000
    441.98,  2846.60000,   945.30000
    442.45,  2842.50000,   931.50000
    442.93,  2837.60000,   924.00000
    443.41,  2817.40000,   934.60000
    443.88,  2822.70000,   936.60000
    444.36,  2809.30000,   951.20000
    444.83,  2808.70000,   967.30000
    445.31,  2812.70000,   947.40000
    445.78,  2797.70000,   931.60000
    446.26,  2800.50000,   929.10000
    446.74,  2796.60000,   923.90000
    447.21,  2818.40000,   930.60000
    447.69,  2828.40000,   946.50000
    448.16,  2850.20000,   943.10000
    448.64,  2826.30000,   942.30000
    449.11,  2806.20000,   951.20000
    449.59,  2804.50000,   958.00000
    450.06,  2808.90000,   961.60000
    450.54,  2807.60000,   957.90000
    451.02,  2845.20000,   949.50000
    451.49,  2854.10000,   943.30000
    451.97,  2846.80000,   951.70000
    452.44,  2844.60000,   950.50000
    452.92,  2825.70000,   956.60000
    453.39,  2801.10000,   957.40000
    453.87,  2807.90000,   953.10000
    454.34,  2814.30000,   949.00000
    454.82,  2824.80000,   934.70000
    455.29,  2849.10000,   910.00000
    455.77,  2858.00000,   913.00000
    456.24,  2820.20000,   929.90000
    456.72,  2788.90000,   939.80000
    457.19,  2779.00000,   950.70000
    457.67,  2789.30000,   957.00000
    458.14,  2825.00000,   949.90000
    458.62,  2843.10000,   944.80000
    459.09,  2831.80000,   941.70000
    459.57,  2811.10000,   935.70000
    460.04,  2813.30000,   940.20000
    460.52,  2810.10000,   952.00000
    460.99,  2797.10000,   958.60000
    461.47,  2794.50000,   954.30000
    461.94,  2771.10000,   946.60000
    462.42,  2772.00000,   939.80000
    462.89,  2792.70000,   940.20000
    463.37,  2814.40000,   943.30000
    463.84,  2815.90000,   952.30000
    464.32,  2821.70000,   957.00000
    464.79,  2816.90000,   950.10000
    465.26,  2823.20000,   936.10000
    465.74,  2815.30000,   926.40000
    466.21,  2835.70000,   925.10000
    466.69,  2840.10000,   934.70000
    467.16,  2836.50000,   954.20000
    467.64,  2821.40000,   956.90000
    468.11,  2810.00000,   948.60000
    468.59,  2807.20000,   947.90000
    469.06,  2825.70000,   945.30000
    469.54,  2849.10000,   945.40000
    470.01,  2852.10000,   946.80000
    470.48,  2810.30000,   945.50000
    470.96,  2826.10000,   937.30000
    471.43,  2849.30000,   941.20000
    471.91,  2876.00000,   939.70000
    472.38,  2905.30000,   944.00000
    472.86,  2879.10000,   947.90000
    473.33,  2819.80000,   948.60000
    473.80,  2811.80000,   946.50000
    474.28,  2817.40000,   948.30000
    474.75,  2828.60000,   947.20000
    475.23,  2860.50000,   943.00000
    475.70,  2857.90000,   939.80000
    476.17,  2836.70000,   942.50000
    476.65,  2827.80000,   948.00000
    477.12,  2832.30000,   947.40000
    477.60,  2804.80000,   937.30000
    478.07,  2821.80000,   920.90000
    478.54,  2839.30000,   915.80000
    479.02,  2846.00000,   923.50000
    479.49,  2857.10000,   942.40000
    479.97,  2860.40000,   945.30000
    480.44,  2844.30000,   942.50000
    480.91,  2815.50000,   948.30000
    481.39,  2804.30000,   949.90000
    481.86,  2799.10000,   952.10000
    482.34,  2781.20000,   961.20000
    482.81,  2804.90000,   955.20000
    483.28,  2838.80000,   947.50000
    483.76,  2818.00000,   956.50000
    484.23,  2833.30000,   956.30000
    484.70,  2815.60000,   959.00000
    485.18,  2805.50000,   959.00000
    485.65,  2816.40000,   955.00000
    486.12,  2826.90000,   945.40000
    486.60,  2810.20000,   947.80000
    487.07,  2819.60000,   952.20000
    487.55,  2845.20000,   955.20000
    488.02,  2866.70000,   958.60000
    488.49,  2863.80000,   960.80000
    488.97,  2868.90000,   966.90000
    489.44,  2863.80000,   960.80000
    489.91,  2821.50000,   959.80000
    490.39,  2815.00000,   948.50000
    490.86,  2775.90000,   940.20000
    491.33,  2740.30000,   935.50000
    491.81,  2775.80000,   955.50000
    492.28,  2821.80000,   954.00000
    492.75,  2815.30000,   954.20000
    493.23,  2865.40000,   952.40000
    493.70,  2886.40000,   941.60000
    494.17,  2881.80000,   930.40000
    494.64,  2875.60000,   941.10000
    495.12,  2835.50000,   943.70000
    495.59,  2834.50000,   943.80000
    496.06,  2860.80000,   950.40000
    496.54,  2878.70000,   948.60000
    497.01,  2859.80000,   940.30000
    497.48,  2845.40000,   942.70000
    497.96,  2824.20000,   938.80000
    498.43,  2857.70000,   938.70000
    498.90,  2864.50000,   936.70000
    499.37,  2886.80000,   938.80000
    499.85,  2859.50000,   935.10000
    500.32,  2856.70000,   939.40000
    500.79,  2840.90000,   937.80000
    501.27,  2836.40000,   954.20000
    501.74,  2826.80000,   956.60000
    502.21,  2820.00000,   953.80000
    502.68,  2812.30000,   935.50000
    503.16,  2806.20000,   922.50000
    503.63,  2807.40000,   907.20000
    504.10,  2820.40000,   912.20000
    504.57,  2813.80000,   923.30000
    505.05,  2823.20000,   939.20000
    505.52,  2841.70000,   942.40000
    505.99,  2834.20000,   938.20000
    506.46,  2833.70000,   931.30000
    506.94,  2827.00000,   917.20000
    507.41,  2813.30000,   915.10000
    507.88,  2812.70000,   920.40000
    508.35,  2804.70000,   927.40000
    508.83,  2792.80000,   931.40000
    509.30,  2821.30000,   939.50000
    509.77,  2825.20000,   941.10000
    510.24,  2825.40000,   941.20000
    510.72,  2806.00000,   936.00000
    511.19,  2793.70000,   926.60000
    511.66,  2800.20000,   919.50000
    512.13,  2837.30000,   917.10000
    512.60,  2823.10000,   926.30000
    513.08,  2813.70000,   937.80000
    513.55,  2800.80000,   936.30000
    514.02,  2780.70000,   936.60000
    514.49,  2785.70000,   924.00000
    514.97,  2802.30000,   918.00000
    515.44,  2810.00000,   916.60000
    515.91,  2810.50000,   917.00000
    516.38,  2814.20000,   910.80000
    516.85,  2777.90000,   920.30000
    517.33,  2765.00000,   913.90000
    517.80,  2766.70000,   919.70000
    518.27,  2787.00000,   923.10000
    518.74,  2826.60000,   927.80000
    519.21,  2849.80000,   923.30000
    519.68,  2831.00000,   920.80000
    520.16,  2804.50000,   918.80000
    520.63,  2788.20000,   913.80000
    521.10,  2786.20000,   897.70000
    521.57,  2814.20000,   894.80000
    522.04,  2822.40000,   893.60000
    522.52,  2823.40000,   896.70000
    522.99,  2804.40000,   909.50000
    523.46,  2815.00000,   923.50000
    523.93,  2823.80000,   918.00000
    524.40,  2850.90000,   922.20000
    524.87,  2841.60000,   924.30000
    525.34,  2831.70000,   920.90000
    525.82,  2817.40000,   917.60000
    526.29,  2821.30000,   920.10000
    526.76,  2814.50000,   920.60000
    527.23,  2831.90000,   915.50000
    527.70,  2820.90000,   910.10000
    528.17,  2820.70000,   912.70000
    528.64,  2815.70000,   914.20000
    529.12,  2818.10000,   919.30000
    529.59,  2810.80000,   929.70000
    530.06,  2816.20000,   930.10000
    530.53,  2859.00000,   930.00000
    531.00,  2834.60000,   932.50000
    531.47,  2788.30000,   927.70000
    531.94,  2776.90000,   926.00000
    532.41,  2775.90000,   922.40000
    532.89,  2795.80000,   928.00000
    533.36,  2860.50000,   931.20000
    533.83,  2843.20000,   939.30000
    534.30,  2818.60000,   941.60000
    534.77,  2828.30000,   941.70000
    535.24,  2834.20000,   947.00000
    535.71,  2823.90000,   956.50000
    536.18,  2833.80000,   960.10000
    536.65,  2829.20000,   959.90000
    537.13,  2800.00000,   957.50000
    537.60,  2790.40000,   946.70000
    538.07,  2791.10000,   951.80000
    538.54,  2780.30000,   959.80000
    539.01,  2798.40000,   972.30000
    539.48,  2841.10000,   972.50000
    539.95,  2856.40000,   965.10000
    540.42,  2868.10000,   961.90000
    540.89,  2856.60000,   960.90000
    541.36,  2827.90000,   972.40000
    541.83,  2811.60000,   973.20000
    542.30,  2802.80000,  1000.00000
    542.77,  2812.80000,  1001.90000
    543.25,  2840.40000,  1005.90000
    543.72,  2843.60000,  1000.10000
    544.19,  2839.80000,  1002.30000
    544.66,  2821.10000,   980.90000
    545.13,  2797.30000,  1005.60000
    545.60,  2779.90000,  1002.20000
    546.07,  2808.10000,   998.10000
    546.54,  2823.70000,   997.70000
    547.01,  2835.00000,  1001.80000
    547.48,  2842.10000,   997.50000
    547.95,  2830.10000,  1012.40000
    548.42,  2804.80000,  1021.10000
    548.89,  2838.50000,  1018.20000
    549.36,  2825.90000,  1032.00000
    549.83,  2819.00000,  1020.30000
    550.30,  2863.50000,  1023.70000
    550.77,  2869.40000,  1021.40000
    551.24,  2866.10000,  1031.50000
    551.71,  2875.80000,  1033.30000
    552.18,  2834.80000,  1044.20000
    552.65,  2785.00000,  1041.20000
    553.12,  2812.80000,  1041.10000
    553.59,  2826.70000,  1035.30000
    554.06,  2835.70000,  1041.20000
    554.53,  2842.40000,  1048.30000
    555.00,  2836.50000,  1043.00000
    555.47,  2820.40000,  1043.50000
    555.94,  2816.60000,  1028.50000
    556.41,  2814.90000,  1031.00000
    556.88,  2800.30000,  1041.50000
    557.35,  2791.20000,  1058.80000
    557.82,  2781.60000,  1068.90000
    558.29,  2790.10000,  1072.60000
    558.76,  2832.50000,  1066.10000
    559.23,  2855.80000,  1063.10000
    559.70,  2858.20000,  1069.00000
    560.17,  2842.80000,  1070.70000
    560.64,  2822.40000,  1075.20000
    561.11,  2807.00000,  1069.70000
    561.58,  2833.20000,  1071.60000
    562.05,  2822.50000,  1075.40000
    562.52,  2828.00000,  1081.30000
    562.99,  2822.90000,  1077.20000
    563.46,  2828.50000,  1077.70000
    563.93,  2817.40000,  1076.50000
    564.40,  2823.50000,  1085.90000
    564.87,  2831.80000,  1088.50000
    565.34,  2855.50000,  1088.60000
    565.81,  2841.60000,  1093.40000
    566.28,  2834.50000,  1089.60000
    566.74,  2814.80000,  1076.40000
    567.21,  2805.40000,  1074.40000
    567.68,  2820.90000,  1064.30000
    568.15,  2815.80000,  1068.40000
    568.62,  2797.30000,  1089.50000
    569.09,  2795.20000,  1096.20000
    569.56,  2798.70000,  1088.90000
    570.03,  2799.00000,  1090.00000
    570.50,  2842.20000,  1075.30000
    570.97,  2837.20000,  1072.50000
    571.44,  2829.20000,  1074.50000
    571.91,  2829.00000,  1083.50000
    572.38,  2812.10000,  1088.80000
    572.84,  2787.00000,  1095.60000
    573.31,  2801.20000,  1087.00000
    573.78,  2795.80000,  1086.60000
    574.25,  2798.10000,  1084.40000
    574.72,  2822.20000,  1084.20000
    575.19,  2820.10000,  1077.10000
    575.66,  2817.60000,  1072.70000
    576.13,  2803.40000,  1080.90000
    576.60,  2808.00000,  1088.70000
    577.07,  2830.80000,  1095.60000
    577.53,  2859.40000,  1093.00000
    578.00,  2856.80000,  1084.70000
    578.47,  2853.30000,  1071.30000
    578.94,  2818.80000,  1085.10000
    579.41,  2791.80000,  1083.10000
    579.88,  2811.30000,  1070.70000
    580.35,  2817.00000,  1061.60000
    580.82,  2815.70000,  1061.90000
    581.28,  2836.60000,  1060.10000
    581.75,  2832.90000,  1066.00000
    582.22,  2827.80000,  1079.20000
    582.69,  2841.20000,  1080.90000
    583.16,  2838.20000,  1080.40000
    583.63,  2828.60000,  1075.50000
    584.10,  2853.70000,  1064.70000
    584.56,  2868.70000,  1050.50000
    585.03,  2858.60000,  1056.00000
    585.50,  2844.70000,  1065.20000
    585.97,  2818.80000,  1059.80000
    586.44,  2817.70000,  1054.20000
    586.91,  2834.50000,  1049.40000
    587.37,  2834.90000,  1055.10000
    587.84,  2815.80000,  1056.70000
    588.31,  2799.80000,  1058.30000
    588.78,  2772.80000,  1053.80000
    589.25,  2807.40000,  1049.60000
    589.72,  2803.70000,  1050.00000
    590.18,  2828.20000,  1064.20000
    590.65,  2849.00000,  1074.70000
    591.12,  2830.90000,  1080.30000
    591.59,  2827.30000,  1083.60000
    592.06,  2819.70000,  1068.30000
    592.52,  2778.20000,  1053.80000
    592.99,  2800.30000,  1043.20000
    593.46,  2797.60000,  1047.80000
    593.93,  2755.10000,  1058.40000
    594.40,  2780.00000,  1070.00000
    594.86,  2808.30000,  1065.50000
    595.33,  2824.20000,  1059.50000
    595.80,  2855.50000,  1038.20000
    596.27,  2851.00000,  1038.80000
    596.74,  2822.40000,  1047.30000
    597.20,  2806.10000,  1062.80000
    597.67,  2815.30000,  1068.30000
    598.14,  2803.40000,  1066.30000
    598.61,  2811.70000,  1049.30000
    599.07,  2812.60000,  1049.10000
    599.54,  2796.20000,  1047.60000
    600.01,  2779.50000,  1054.50000
    600.48,  2829.60000,  1063.70000
    600.95,  2857.60000,  1058.20000
    601.41,  2871.50000,  1052.30000
    601.88,  2860.00000,  1044.20000
    602.35,  2797.00000,  1039.40000
    602.82,  2750.20000,  1037.90000
    603.28,  2763.00000,  1049.70000
    603.75,  2765.00000,  1043.20000
    604.22,  2791.20000,  1037.30000
    604.69,  2809.50000,  1030.50000
    605.15,  2818.40000,  1032.40000
    605.62,  2807.10000,  1039.70000
    606.09,  2800.40000,  1047.40000
    606.56,  2781.00000,  1049.00000
    607.02,  2786.00000,  1037.60000
    607.49,  2783.90000,  1029.50000
    607.96,  2814.70000,  1023.20000
    608.42,  2809.90000,  1023.50000
    608.89,  2865.40000,  1019.90000
    609.36,  2874.80000,  1027.60000
    609.83,  2861.30000,  1022.70000
    610.29,  2827.30000,  1011.60000
    610.76,  2799.20000,  1010.00000
    611.23,  2784.60000,  1004.20000
    611.69,  2815.60000,  1002.60000
    612.16,  2820.90000,  1001.20000
    612.63,  2823.10000,   993.90000
    613.10,  2809.70000,   983.70000
    613.56,  2783.70000,   990.30000
    614.03,  2789.90000,   984.00000
    614.50,  2795.30000,   990.00000
    614.96,  2810.80000,   987.80000
    615.43,  2821.00000,   987.00000
    615.90,  2833.50000,   994.60000
    616.36,  2828.20000,   996.40000
    616.83,  2811.50000,   987.60000
    617.30,  2808.70000,   983.00000
    617.76,  2786.30000,   976.50000
    618.23,  2766.80000,   976.20000
    618.70,  2760.40000,   976.70000
    619.16,  2777.60000,   967.50000
    619.63,  2777.90000,   952.80000
    620.10,  2787.30000,   943.70000
    620.56,  2783.90000,   935.30000
    621.03,  2805.90000,   934.90000
    621.50,  2814.30000,   939.00000
    621.96,  2824.20000,   938.60000
    622.43,  2818.60000,   939.60000
    622.90,  2823.30000,   935.90000
    623.36,  2829.50000,   937.60000
    623.83,  2831.50000,   949.50000
    624.30,  2818.30000,   962.60000
    624.76,  2816.10000,   962.10000
    625.23,  2821.60000,   960.30000
    625.70,  2848.30000,   934.10000
    626.16,  2854.50000,   922.80000
    626.63,  2820.00000,   924.30000
    627.09,  2805.40000,   922.00000
    627.56,  2810.80000,   925.00000
    628.03,  2801.30000,   933.20000
    628.49,  2812.30000,   935.50000
    628.96,  2793.10000,   940.40000
    629.43,  2789.20000,   943.20000
    629.89,  2792.00000,   937.70000
    630.36,  2805.50000,   929.50000
    630.82,  2792.70000,   926.30000
    631.29,  2791.30000,   924.60000
    631.76,  2769.40000,   920.80000
    632.22,  2760.80000,   911.90000
    632.69,  2769.90000,   912.10000
    633.15,  2800.60000,   903.80000
    633.62,  2831.60000,   900.70000
    634.09,  2843.80000,   904.00000
    634.55,  2835.50000,   907.60000
    635.02,  2801.10000,   912.00000
    635.48,  2788.50000,   918.40000
    635.95,  2785.10000,   916.00000
    636.42,  2798.00000,   908.20000
    636.88,  2790.80000,   900.50000
    637.35,  2788.50000,   892.10000
    637.81,  2798.50000,   890.40000
    638.28,  2809.40000,   884.10000
    638.74,  2823.00000,   884.10000
    639.21,  2829.10000,   884.60000
    639.68,  2802.90000,   879.10000
    640.14,  2772.90000,   879.30000
    640.61,  2785.70000,   878.70000
    641.07,  2764.40000,   877.00000
    641.54,  2789.80000,   874.40000
    642.00,  2805.90000,   883.80000
    642.47,  2817.50000,   887.70000
    642.93,  2812.90000,   893.00000
    643.40,  2810.50000,   898.30000
    643.87,  2789.30000,   892.50000
    644.33,  2800.20000,   872.50000
    644.80,  2806.00000,   867.00000
    645.26,  2791.50000,   864.30000
    645.73,  2780.10000,   866.50000
    646.19,  2776.40000,   873.70000
    646.66,  2786.20000,   873.60000
    647.12,  2788.10000,   861.20000
    647.59,  2802.80000,   848.80000
    648.05,  2804.50000,   851.70000
    648.52,  2792.00000,   853.10000
    648.98,  2789.30000,   858.10000
    649.45,  2776.60000,   865.70000
    649.91,  2756.60000,   860.10000
    650.38,  2764.90000,   851.80000
    650.84,  2805.50000,   858.10000
    651.31,  2796.60000,   856.30000
    651.77,  2803.90000,   852.00000
    652.24,  2779.80000,   853.30000
    652.70,  2761.70000,   849.80000
    653.17,  2755.10000,   852.70000
    653.63,  2783.40000,   859.30000
    654.10,  2777.10000,   860.20000
    654.56,  2794.00000,   852.60000
    655.03,  2785.60000,   852.50000
    655.49,  2793.00000,   846.00000
    655.96,  2780.90000,   865.20000
    656.42,  2773.10000,   867.60000
    656.89,  2758.90000,   868.00000
    657.35,  2813.30000,   858.60000
    657.82,  2858.30000,   854.90000
    658.28,  2891.40000,   845.40000
    658.75,  2898.70000,   857.90000
    659.21,  2860.10000,   843.40000
    659.68,  2832.90000,   824.90000
    660.14,  2823.60000,   824.10000
    660.61,  2786.40000,   824.40000
    661.07,  2813.60000,   830.40000
    661.53,  2827.80000,   834.00000
    662.00,  2846.40000,   831.30000
    662.46,  2844.00000,   821.00000
    662.93,  2823.10000,   826.70000
    663.39,  2798.00000,   815.10000
    663.86,  2827.20000,   823.40000
    664.32,  2821.90000,   827.00000
    664.79,  2846.40000,   826.50000
    665.25,  2827.60000,   829.50000
    665.71,  2805.20000,   824.10000
    666.18,  2771.40000,   823.30000
    666.64,  2795.00000,   824.70000
    667.11,  2788.70000,   833.10000
    667.57,  2810.30000,   831.40000
    668.04,  2826.00000,   832.50000
    668.50,  2821.40000,   820.80000
    668.96,  2793.10000,   819.20000
    669.43,  2824.50000,   800.50000
    669.89,  2797.20000,   807.70000
    670.36,  2776.80000,   812.30000
    670.82,  2773.40000,   810.00000
    671.28,  2780.60000,   802.50000
    671.75,  2788.90000,   791.40000
    672.21,  2823.30000,   776.70000
    672.68,  2833.80000,   774.00000
    673.14,  2841.90000,   780.60000
    673.60,  2856.40000,   785.80000
    674.07,  2823.90000,   793.50000
    674.53,  2787.20000,   799.90000
    675.00,  2774.40000,   794.30000
    675.46,  2770.30000,   783.30000
    675.92,  2770.40000,   784.20000
    676.39,  2821.10000,   772.90000
    676.85,  2817.10000,   775.40000
    677.31,  2817.00000,   789.00000
    677.78,  2821.50000,   791.30000
    678.24,  2800.30000,   795.80000
    678.70,  2781.40000,   798.00000
    679.17,  2775.60000,   781.20000
    679.63,  2754.90000,   766.90000
    680.10,  2754.30000,   762.20000
    680.56,  2779.40000,   757.10000
    681.02,  2779.90000,   748.10000
    681.49,  2813.80000,   750.90000
    681.95,  2813.30000,   747.70000
    682.41,  2798.00000,   752.10000
    682.88,  2784.80000,   753.50000
    683.34,  2779.40000,   759.00000
    683.80,  2763.80000,   754.20000
    684.27,  2783.40000,   759.40000
    684.73,  2793.10000,   747.00000
    685.19,  2810.00000,   748.80000
    685.66,  2838.00000,   736.00000
    686.12,  2832.10000,   740.50000
    686.58,  2844.50000,   742.40000
    687.05,  2830.90000,   750.30000
    687.51,  2815.40000,   744.70000
    687.97,  2808.50000,   745.80000
    688.44,  2817.40000,   742.30000
    688.90,  2815.60000,   739.00000
    689.36,  2813.20000,   740.10000
    689.83,  2813.90000,   740.50000
    690.29,  2824.60000,   737.90000
    690.75,  2834.70000,   736.80000
    691.21,  2851.80000,   737.60000
    691.68,  2840.50000,   730.90000
    692.14,  2802.20000,   731.00000
    692.60,  2811.80000,   725.90000
    693.07,  2796.50000,   716.90000
    693.53,  2808.90000,   719.50000
    693.99,  2831.80000,   722.00000
    694.45,  2829.40000,   721.20000
    694.92,  2844.30000,   718.10000
    695.38,  2855.20000,   711.70000
    695.84,  2837.40000,   701.10000
    696.31,  2814.30000,   715.10000
    696.77,  2824.90000,   724.50000
    697.23,  2809.10000,   737.00000
    697.69,  2817.20000,   731.20000
    698.16,  2802.80000,   729.70000
    698.62,  2790.80000,   717.60000
    699.08,  2768.50000,   714.60000
    699.54,  2782.20000,   704.40000
    700.01,  2774.40000,   704.60000
    700.47,  2768.50000,   696.20000
    700.93,  2764.00000,   702.50000
    701.39,  2770.80000,   703.20000
    701.86,  2782.60000,   699.60000
    702.32,  2787.70000,   698.60000
    702.78,  2793.20000,   697.30000
    703.24,  2787.60000,   697.70000
    703.71,  2789.20000,   701.10000
    704.17,  2800.50000,   702.40000
    704.63,  2799.30000,   696.20000
    705.09,  2787.60000,   697.40000
    705.56,  2812.60000,   688.80000
    706.02,  2814.00000,   688.90000
    706.48,  2796.60000,   690.90000
    706.94,  2792.90000,   693.50000
    707.40,  2777.00000,   688.40000
    707.87,  2776.90000,   681.40000
    708.33,  2797.20000,   674.80000
    708.79,  2782.00000,   684.00000
    709.25,  2755.50000,   690.30000
    709.72,  2757.60000,   705.00000
    710.18,  2776.70000,   695.30000
    710.64,  2778.20000,   691.80000
    711.10,  2775.90000,   678.40000
    711.56,  2781.10000,   688.70000
    712.03,  2805.40000,   685.50000
    712.49,  2831.20000,   693.10000
    712.95,  2855.40000,   679.00000
    713.41,  2835.20000,   673.60000
    713.87,  2824.00000,   657.70000
    714.33,  2816.00000,   659.10000
    714.80,  2803.90000,   660.60000
    715.26,  2766.30000,   668.90000
    715.72,  2763.90000,   674.30000
    716.18,  2760.20000,   680.10000
    716.64,  2778.50000,   671.80000
    717.11,  2781.40000,   666.30000
    717.57,  2778.30000,   667.60000
    718.03,  2748.30000,   660.80000
    718.49,  2760.60000,   661.40000
    718.95,  2807.50000,   663.00000
    719.41,  2818.00000,   655.80000
    719.87,  2790.10000,   655.60000
    720.34,  2784.10000,   661.30000
    720.80,  2770.10000,   658.80000
    721.26,  2761.70000,   666.50000
    721.72,  2796.60000,   663.50000
    722.18,  2780.70000,   661.70000
    722.64,  2758.00000,   655.40000
    723.10,  2775.10000,   654.50000
    723.57,  2789.10000,   652.80000
    724.03,  2801.10000,   658.70000
    724.49,  2799.60000,   654.70000
    724.95,  2751.40000,   662.30000
    725.41,  2808.00000,   657.80000
    725.87,  2856.90000,   662.40000
    726.33,  2876.00000,   665.50000
    726.80,  2886.90000,   661.00000
    727.26,  2844.70000,   655.80000
    727.72,  2761.10000,   657.30000
    728.18,  2773.20000,   651.50000
    728.64,  2764.70000,   649.00000
    729.10,  2769.60000,   644.00000
    729.56,  2787.80000,   643.80000
    730.02,  2813.80000,   644.60000
    730.48,  2813.60000,   650.90000
    730.94,  2811.30000,   648.60000
    731.41,  2797.70000,   648.50000
    731.87,  2770.40000,   646.30000
    732.33,  2743.70000,   652.90000
    732.79,  2773.10000,   652.20000
    733.25,  2768.00000,   660.00000
    733.71,  2790.80000,   649.70000
    734.17,  2809.60000,   641.90000
    734.63,  2793.00000,   634.70000
    735.09,  2774.50000,   636.40000
    735.55,  2774.40000,   640.40000
    736.01,  2752.40000,   656.50000
    736.47,  2759.60000,   659.20000
    736.94,  2766.80000,   647.70000
    737.40,  2780.90000,   635.40000
    737.86,  2783.90000,   628.40000
    738.32,  2798.50000,   626.40000
    738.78,  2812.30000,   634.00000
    739.24,  2805.80000,   637.20000
    739.70,  2797.80000,   641.90000
    740.16,  2821.60000,   637.00000
    740.62,  2825.10000,   635.80000
    741.08,  2845.60000,   633.90000
    741.54,  2833.10000,   630.00000
    742.00,  2810.60000,   628.00000
    742.46,  2775.90000,   635.10000
    742.92,  2752.30000,   628.00000
    743.38,  2748.10000,   627.20000
    743.84,  2753.90000,   625.50000
    744.30,  2768.80000,   623.30000
    744.76,  2778.30000,   635.50000
    745.22,  2778.50000,   642.70000
    745.68,  2766.30000,   632.40000
    746.14,  2757.80000,   626.90000
    746.60,  2762.30000,   622.70000
    747.06,  2778.30000,   623.50000
    747.52,  2762.00000,   633.10000
    747.98,  2786.00000,   636.50000
    748.44,  2796.90000,   626.50000
    748.90,  2791.60000,   618.90000
    749.36,  2794.00000,   618.70000
    749.82,  2797.30000,   627.80000
    750.28,  2797.40000,   633.70000
    750.74,  2819.60000,   638.80000
    751.20,  2821.20000,   631.80000
    751.66,  2807.50000,   629.90000
    752.12,  2786.80000,   631.90000
    752.58,  2780.80000,   648.00000
    753.04,  2795.30000,   645.40000
    753.50,  2818.30000,   646.10000
    753.96,  2806.30000,   632.50000
    754.42,  2775.90000,   629.80000
    754.88,  2755.60000,   623.00000
    755.34,  2751.40000,   627.80000
    755.80,  2779.20000,   625.70000
    756.26,  2796.70000,   625.00000
    756.72,  2798.70000,   626.70000
    757.18,  2794.10000,   634.40000
    757.64,  2787.30000,   636.50000
    758.10,  2758.30000,   640.70000
    758.56,  2746.60000,   631.70000
    759.02,  2758.90000,   620.40000
    759.48,  2759.40000,   629.10000
    759.94,  2782.60000,   625.90000
    760.40,  2785.40000,   632.70000
    760.86,  2777.80000,   633.10000
    761.32,  2774.60000,   632.20000
    761.78,  2802.00000,   636.80000
    762.24,  2777.40000,   642.20000
    762.70,  2784.70000,   636.50000
    763.15,  2769.50000,   634.60000
    763.61,  2778.00000,   626.30000
    764.07,  2783.60000,   640.60000
    764.53,  2791.20000,   644.40000
    764.99,  2793.90000,   644.60000
    765.45,  2807.80000,   646.10000
    765.91,  2794.10000,   636.20000
    766.37,  2780.50000,   628.60000
    766.83,  2750.40000,   635.30000
    767.29,  2753.60000,   635.70000
    767.75,  2760.40000,   644.80000
    768.21,  2777.40000,   649.30000
    768.66,  2789.60000,   644.10000
    769.12,  2797.60000,   664.10000
    769.58,  2773.30000,   678.80000
    770.04,  2766.80000,   673.10000
    770.50,  2736.00000,   663.00000
    770.96,  2727.10000,   634.70000
    771.42,  2757.90000,   610.30000
    771.88,  2787.10000,   604.50000
    772.34,  2792.30000,   620.80000
    772.80,  2779.40000,   630.30000
    773.25,  2753.50000,   633.50000
    773.71,  2747.80000,   629.50000
    774.17,  2737.20000,   633.00000
    774.63,  2758.50000,   626.50000
    775.09,  2764.60000,   648.00000
    775.55,  2750.20000,   654.60000
    776.01,  2726.30000,   646.10000
    776.47,  2727.20000,   638.50000
    776.92,  2710.60000,   628.30000
    777.38,  2737.70000,   628.50000
    777.84,  2745.60000,   635.80000
    778.30,  2743.00000,   631.90000
    778.76,  2738.00000,   630.00000
    779.22,  2759.30000,   634.40000
    779.68,  2764.10000,   634.80000
    780.13,  2766.60000,   644.70000
    780.59,  2749.70000,   640.60000
    781.05,  2736.70000,   624.90000
    781.51,  2745.70000,   622.10000
    781.97,  2762.40000,   624.00000
    782.43,  2768.70000,   639.60000
    782.88,  2780.30000,   644.00000
    783.34,  2773.70000,   638.90000
    783.80,  2777.10000,   621.40000
    784.26,  2793.30000,   614.50000
    784.72,  2777.40000,   609.70000
    785.18,  2761.70000,   620.60000
    785.63,  2749.60000,   623.90000
    786.09,  2768.80000,   629.20000
    786.55,  2799.90000,   631.50000
    787.01,  2821.60000,   633.40000
    787.47,  2798.70000,   631.70000
    787.92,  2769.80000,   633.30000
    788.38,  2743.10000,   631.80000
    788.84,  2736.00000,   630.40000
    789.30,  2745.80000,   630.00000
    789.76,  2750.60000,   638.10000
    790.21,  2752.20000,   636.50000
    790.67,  2746.70000,   635.70000
    791.13,  2753.40000,   628.30000
    791.59,  2739.00000,   620.10000
    792.05,  2743.50000,   607.70000
    792.50,  2755.70000,   613.40000
    792.96,  2769.20000,   619.70000
    793.42,  2738.10000,   628.60000
    793.88,  2741.90000,   636.00000
    794.33,  2715.20000,   638.90000
    794.79,  2725.10000,   636.50000
    795.25,  2739.90000,   637.10000
    795.71,  2753.70000,   643.60000
    796.17,  2754.90000,   636.60000
    796.62,  2758.10000,   632.90000
    797.08,  2726.50000,   637.80000
    797.54,  2725.60000,   634.80000
    798.00,  2718.10000,   629.80000
    798.45,  2731.40000,   628.00000
    798.91,  2745.40000,   618.90000
    799.37,  2755.00000,   616.30000
    799.83,  2748.60000,   628.80000
    800.28,  2732.00000,   629.60000
    800.74,  2729.50000,   625.90000
    801.20,  2751.70000,   620.70000
    801.66,  2731.50000,   616.90000
    802.11,  2741.70000,   619.70000
    802.57,  2758.90000,   623.20000
    803.03,  2739.10000,   616.60000
    803.48,  2722.50000,   617.80000
    803.94,  2772.90000,   621.30000
    804.40,  2779.90000,   626.80000
    804.86,  2800.20000,   636.00000
    805.31,  2793.40000,   634.70000
    805.77,  2754.20000,   620.60000
    806.23,  2702.10000,   619.30000
    806.69,  2729.10000,   614.40000
    807.14,  2733.80000,   616.90000
    807.60,  2755.30000,   614.20000
    808.06,  2757.00000,   621.00000
    808.51,  2755.20000,   619.00000
    808.97,  2724.40000,   622.00000
    809.43,  2724.50000,   619.90000
    809.88,  2720.10000,   624.20000
    810.34,  2714.40000,   631.70000
    810.80,  2734.60000,   640.30000
    811.26,  2751.60000,   634.00000
    811.71,  2739.20000,   617.40000
    812.17,  2760.60000,   602.60000
    812.63,  2752.40000,   600.50000
    813.08,  2726.60000,   611.90000
    813.54,  2730.60000,   615.30000
    814.00,  2737.80000,   618.30000
    814.45,  2738.90000,   608.70000
    814.91,  2757.30000,   610.20000
    815.37,  2746.90000,   602.40000
    815.82,  2735.30000,   600.40000
    816.28,  2730.40000,   590.10000
    816.74,  2732.10000,   598.50000
    817.19,  2707.10000,   602.00000
    817.65,  2716.40000,   606.90000
    818.11,  2737.00000,   603.90000
    818.56,  2743.10000,   601.00000
    819.02,  2737.40000,   594.50000
    819.48,  2742.50000,   598.30000
    819.93,  2699.40000,   602.10000
    820.39,  2717.60000,   601.90000
    820.84,  2752.70000,   598.40000
    821.30,  2771.90000,   588.20000
    821.76,  2776.50000,   589.10000
    822.21,  2779.30000,   592.20000
    822.67,  2753.40000,   596.00000
    823.13,  2717.90000,   597.70000
    823.58,  2743.70000,   602.60000
    824.04,  2764.70000,   602.80000
    824.49,  2761.50000,   610.20000
    824.95,  2765.80000,   616.00000
    825.41,  2773.80000,   606.50000
    825.86,  2751.60000,   598.00000
    826.32,  2778.30000,   594.70000
    826.78,  2752.90000,   596.90000
    827.23,  2727.10000,   594.40000
    827.69,  2709.90000,   591.40000
    828.14,  2713.90000,   588.40000
    828.60,  2740.50000,   590.00000
    829.06,  2767.10000,   591.40000
    829.51,  2748.90000,   600.60000
    829.97,  2760.50000,   593.80000
    830.42,  2749.20000,   591.90000
    830.88,  2734.90000,   581.90000
    831.34,  2735.10000,   577.90000
    831.79,  2754.10000,   581.30000
    832.25,  2752.90000,   578.70000
    832.70,  2752.70000,   577.80000
    833.16,  2752.00000,   586.50000
    833.61,  2745.30000,   585.10000
    834.07,  2745.50000,   583.50000
    834.53,  2748.00000,   577.20000
    834.98,  2748.30000,   555.30000
    835.44,  2730.80000,   540.60000
    835.89,  2731.30000,   545.90000
    836.35,  2733.90000,   556.50000
    836.80,  2752.10000,   572.90000
    837.26,  2742.10000,   569.60000
    837.71,  2731.60000,   560.10000
    838.17,  2723.90000,   561.50000
    838.63,  2716.40000,   568.40000
    839.08,  2708.40000,   580.40000
    839.54,  2719.80000,   587.40000
    839.99,  2720.00000,   577.50000
    840.45,  2731.10000,   574.10000
    840.90,  2754.30000,   569.20000
    841.36,  2772.90000,   560.00000
    841.81,  2765.00000,   557.80000
    842.27,  2743.30000,   568.90000
    842.72,  2718.30000,   578.20000
    843.18,  2720.30000,   576.80000
    843.63,  2704.00000,   574.00000
    844.09,  2709.00000,   561.50000
    844.55,  2702.80000,   550.30000
    845.00,  2691.40000,   559.60000
    845.46,  2699.10000,   560.50000
    845.91,  2724.60000,   550.40000
    846.37,  2741.20000,   555.50000
    846.82,  2767.30000,   554.70000
    847.28,  2769.80000,   564.20000
    847.73,  2715.00000,   574.00000
    848.19,  2730.70000,   580.50000
    848.64,  2740.90000,   571.50000
    849.10,  2763.80000,   562.20000
    849.55,  2773.40000,   547.60000
    850.01,  2763.60000,   544.80000
    850.46,  2708.70000,   545.00000
    850.92,  2736.20000,   549.40000
    851.37,  2747.10000,   549.60000
    851.83,  2747.10000,   558.20000
    852.28,  2749.30000,   560.60000
    852.73,  2736.60000,   556.20000
    853.19,  2708.10000,   556.30000
    853.64,  2710.00000,   554.20000
    854.10,  2713.10000,   553.00000
    854.55,  2711.50000,   560.10000
    855.01,  2720.10000,   568.90000
    855.46,  2709.70000,   557.90000
    855.92,  2704.10000,   554.90000
    856.37,  2702.70000,   549.10000
    856.83,  2697.90000,   541.30000
    857.28,  2719.00000,   538.50000
    857.74,  2721.90000,   548.50000
    858.19,  2727.90000,   551.60000
    858.64,  2748.10000,   555.60000
    859.10,  2727.80000,   564.30000
    859.55,  2695.10000,   564.80000
    860.01,  2750.90000,   554.10000
    860.46,  2772.10000,   549.10000
    860.92,  2776.20000,   541.30000
    861.37,  2773.80000,   537.90000
    861.83,  2760.40000,   546.70000
    862.28,  2736.00000,   547.30000
    862.73,  2756.60000,   545.00000
    863.19,  2743.50000,   551.20000
    863.64,  2722.40000,   548.20000
    864.10,  2701.80000,   556.20000
    864.55,  2724.20000,   558.80000
    865.01,  2730.40000,   550.30000
    865.46,  2744.90000,   545.50000
    865.91,  2734.20000,   536.10000
    866.37,  2727.60000,   530.10000
    866.82,  2712.90000,   543.10000
    867.28,  2705.10000,   550.60000
    867.73,  2695.20000,   557.60000
    868.18,  2721.00000,   568.60000
    868.64,  2724.60000,   569.10000
    869.09,  2755.20000,   564.30000
    869.55,  2771.20000,   557.60000
    870.00,  2758.10000,   544.60000
    870.45,  2743.60000,   540.80000
    870.91,  2706.70000,   547.20000
    871.36,  2675.30000,   554.40000
    871.81,  2700.50000,   555.00000
    872.27,  2735.50000,   555.00000
    872.72,  2746.10000,   553.00000
    873.18,  2751.20000,   551.70000
    873.63,  2715.10000,   559.30000
    874.08,  2699.70000,   568.40000
    874.54,  2715.10000,   570.80000
    874.99,  2716.40000,   569.40000
    875.44,  2698.70000,   569.70000
    875.90,  2686.00000,   558.50000
    876.35,  2679.10000,   558.00000
    876.81,  2711.90000,   554.60000
    877.26,  2742.10000,   551.60000
    877.71,  2728.00000,   553.20000
    878.17,  2698.00000,   566.10000
    878.62,  2721.40000,   565.10000
    879.07,  2742.50000,   567.20000
    879.53,  2768.80000,   561.40000
    879.98,  2762.10000,   558.80000
    880.43,  2742.20000,   558.60000
    880.89,  2729.10000,   555.10000
    881.34,  2739.50000,   547.00000
    881.79,  2747.50000,   552.30000
    882.25,  2739.90000,   549.80000
    882.70,  2709.60000,   551.10000
    883.15,  2689.00000,   563.20000
    883.61,  2704.70000,   569.60000
    884.06,  2688.60000,   574.60000
    884.51,  2712.10000,   579.50000
    884.97,  2708.50000,   575.20000
    885.42,  2719.80000,   565.50000
    885.87,  2715.40000,   564.90000
    886.32,  2733.40000,   553.10000
    886.78,  2703.60000,   554.70000
    887.23,  2713.10000,   552.10000
    887.68,  2704.30000,   555.60000
    888.14,  2710.20000,   559.60000
    888.59,  2695.00000,   564.60000
    889.04,  2679.10000,   561.70000
    889.50,  2647.70000,   565.20000
    889.95,  2672.60000,   556.70000
    890.40,  2700.80000,   563.10000
    890.85,  2725.00000,   561.90000
    891.31,  2720.20000,   564.20000
    891.76,  2715.80000,   571.20000
    892.21,  2695.70000,   572.30000
    892.67,  2707.00000,   570.50000
    893.12,  2697.70000,   579.30000
    893.57,  2708.00000,   574.50000
    894.02,  2712.30000,   577.10000
    894.48,  2735.20000,   571.80000
    894.93,  2727.90000,   571.70000
    895.38,  2729.90000,   577.40000
    895.83,  2703.60000,   582.60000
    896.29,  2706.50000,   578.20000
    896.74,  2703.00000,   577.10000
    897.19,  2726.90000,   570.10000
    897.64,  2734.40000,   569.10000
    898.10,  2746.70000,   566.40000
    898.55,  2725.70000,   573.30000
    899.00,  2717.20000,   574.20000
    899.45,  2681.00000,   572.60000
    899.91,  2662.90000,   585.00000
    900.36,  2644.30000,   589.40000
    900.81,  2683.50000,   579.60000
    901.26,  2697.80000,   585.20000
    901.72,  2721.00000,   588.30000
    902.17,  2720.30000,   583.80000
    902.62,  2725.40000,   592.80000
    903.07,  2689.40000,   602.90000
    903.52,  2697.40000,   606.70000
    903.98,  2690.90000,   607.90000
    904.43,  2699.80000,   606.10000
    904.88,  2694.30000,   601.40000
    905.33,  2711.50000,   591.10000
    905.79,  2693.20000,   589.30000
    906.24,  2704.30000,   585.50000
    906.69,  2719.10000,   580.50000
    907.14,  2715.70000,   589.70000
    907.59,  2684.90000,   599.10000
    908.05,  2675.30000,   601.90000
    908.50,  2657.30000,   605.60000
    908.95,  2673.90000,   603.80000
    909.40,  2691.50000,   599.80000
    909.85,  2680.50000,   613.60000
    910.31,  2679.80000,   618.40000
    910.76,  2668.40000,   615.50000
    911.21,  2653.90000,   610.90000
    911.66,  2656.20000,   608.20000
    912.11,  2651.80000,   613.20000
    912.56,  2673.60000,   620.50000
    913.02,  2699.20000,   619.00000
    913.47,  2699.80000,   617.10000
    913.92,  2693.80000,   624.30000
    914.37,  2680.60000,   634.60000
    914.82,  2673.10000,   651.70000
    915.27,  2694.70000,   658.80000
    915.73,  2717.20000,   660.20000
    916.18,  2708.80000,   666.70000
    916.63,  2690.60000,   680.00000
    917.08,  2647.30000,   686.40000
    917.53,  2680.00000,   697.30000
    917.98,  2573.30000,   700.50000
    918.44,  2921.50000,   713.00000
    918.89,  3106.90000,   721.00000
    919.34,  3156.70000,   733.50000
    919.79,  3057.60000,   743.20000
    920.24,  2895.60000,   757.80000
    920.69,  2574.70000,   765.40000
    921.14,  2705.50000,   784.70000
    921.59,  2699.40000,   792.70000
    922.05,  2700.00000,   800.00000
    922.50,  2694.90000,   832.00000
    922.95,  2710.70000,   862.50000
    923.40,  2724.10000,   907.90000
    923.85,  2729.40000,   962.20000
    924.30,  2732.60000,  1017.70000
    924.75,  2727.90000,  1079.60000
    925.20,  2705.80000,  1173.70000
    925.66,  2689.90000,  1269.80000
    926.11,  2692.10000,  1394.00000
    926.56,  2693.20000,  1556.60000
    927.01,  2707.70000,  1737.60000
    927.46,  2702.50000,  1943.30000
    927.91,  2672.40000,  2178.50000
    928.36,  2643.40000,  2437.70000
    928.81,  2654.20000,  2701.10000
    929.26,  2666.50000,  2986.90000
    929.71,  2692.30000,  3295.90000
    930.16,  2715.30000,  3647.40000
    930.62,  2694.10000,  4023.40000
    931.07,  2687.10000,  4382.80000
    931.52,  2692.40000,  4705.20000
    931.97,  2709.30000,  5018.50000
    932.42,  2712.30000,  5347.00000
    932.87,  2715.80000,  5694.60000
    933.32,  2688.00000,  5998.60000
    933.77,  2707.50000,  6189.00000
    934.22,  2699.50000,  6292.20000
    934.67,  2716.90000,  6361.00000
    935.12,  2711.30000,  6432.60000
    935.57,  2687.20000,  6536.30000
    936.02,  2651.80000,  6632.90000
    936.47,  2672.10000,  6682.20000
    936.93,  2645.20000,  6695.40000
    937.38,  2650.90000,  6671.50000
    937.83,  2679.40000,  6630.10000
    938.28,  2683.20000,  6630.00000
    938.73,  2679.80000,  6670.60000
    939.18,  2696.00000,  6760.30000
    939.63,  2689.80000,  6893.20000
    940.08,  2701.90000,  7066.70000
    940.53,  2725.70000,  7301.60000
    940.98,  2721.90000,  7574.30000
    941.43,  2697.60000,  7831.50000
    941.88,  2685.30000,  8065.40000
    942.33,  2689.60000,  8277.10000
    942.78,  2685.70000,  8415.90000
    943.23,  2699.40000,  8478.00000
    943.68,  2705.50000,  8475.90000
    944.13,  2709.10000,  8403.50000
    944.58,  2720.30000,  8366.70000
    945.03,  2713.10000,  8463.70000
    945.48,  2680.50000,  8561.20000
    945.93,  2673.00000,  8635.20000
    946.38,  2686.20000,  8658.00000
    946.83,  2714.20000,  8631.80000
    947.28,  2731.60000,  8650.40000
    947.73,  2726.00000,  8718.70000
    948.18,  2696.50000,  8738.60000
    948.63,  2669.50000,  8777.10000
    949.08,  2673.50000,  8834.90000
    949.53,  2665.80000,  8884.90000
    949.98,  2659.40000,  8894.80000
    950.43,  2667.50000,  8882.90000
    950.88,  2671.50000,  8828.40000
    951.33,  2677.40000,  8759.10000
    951.78,  2708.50000,  8773.30000
    952.23,  2713.10000,  8759.70000
    952.68,  2699.60000,  8599.20000
    953.13,  2704.70000,  8419.40000
    953.58,  2709.70000,  8269.10000
    954.03,  2696.60000,  8147.80000
    954.48,  2682.70000,  8126.20000
    954.93,  2668.80000,  8120.70000
    955.38,  2652.70000,  8004.10000
    955.83,  2663.10000,  7827.10000
    956.28,  2673.60000,  7700.50000
    956.73,  2691.50000,  7611.80000
    957.18,  2702.00000,  7493.40000
    957.62,  2696.10000,  7353.50000
    958.07,  2702.10000,  7157.50000
    958.52,  2686.50000,  6915.60000
    958.97,  2674.90000,  6714.50000
    959.42,  2672.30000,  6535.80000
    959.87,  2668.20000,  6350.40000
    960.32,  2672.10000,  6246.50000
    960.77,  2704.90000,  6160.50000
    961.22,  2743.60000,  6054.60000
    961.67,  2764.60000,  5918.10000
    962.12,  2734.60000,  5699.10000
    962.57,  2694.90000,  5472.00000
    963.02,  2689.30000,  5283.20000
    963.47,  2675.30000,  5088.20000
    963.92,  2694.20000,  4920.70000
    964.36,  2703.20000,  4798.00000
    964.81,  2699.50000,  4695.00000
    965.26,  2697.10000,  4628.50000
    965.71,  2703.30000,  4584.60000
    966.16,  2695.20000,  4525.90000
    966.61,  2676.10000,  4448.80000
    967.06,  2668.80000,  4383.20000
    967.51,  2684.10000,  4335.60000
    967.96,  2692.60000,  4238.60000
    968.41,  2702.20000,  4136.20000
    968.85,  2711.10000,  4022.20000
    969.30,  2699.60000,  3881.90000
    969.75,  2714.70000,  3744.00000
    970.20,  2708.10000,  3613.00000
    970.65,  2709.70000,  3443.30000
    971.10,  2697.70000,  3251.80000
    971.55,  2696.00000,  3073.10000
    972.00,  2690.30000,  2909.60000
    972.44,  2679.30000,  2788.40000
    972.89,  2692.40000,  2697.00000
    973.34,  2709.60000,  2612.40000
    973.79,  2711.30000,  2516.70000
    974.24,  2727.70000,  2427.40000
    974.69,  2706.40000,  2351.00000
    975.14,  2668.40000,  2287.60000
    975.59,  2668.30000,  2219.00000
    976.03,  2655.80000,  2163.90000
    976.48,  2648.70000,  2144.90000
    976.93,  2656.90000,  2154.80000
    977.38,  2649.80000,  2190.50000
    977.83,  2642.50000,  2225.60000
    978.28,  2656.20000,  2233.20000
    978.72,  2670.90000,  2225.00000
    979.17,  2686.70000,  2220.00000
    979.62,  2709.80000,  2200.60000
    980.07,  2715.50000,  2187.80000
    980.52,  2698.10000,  2172.30000
    980.97,  2674.10000,  2158.50000
    981.41,  2631.30000,  2152.20000
    981.86,  2612.80000,  2173.80000
    982.31,  2639.00000,  2214.70000
    982.76,  2654.60000,  2270.80000
    983.21,  2683.50000,  2297.70000
    983.66,  2689.70000,  2290.40000
    984.10,  2663.80000,  2230.50000
    984.55,  2651.30000,  2152.10000
    985.00,  2639.90000,  2058.20000
    985.45,  2615.40000,  1965.90000
    985.90,  2626.20000,  1866.70000
    986.34,  2648.70000,  1772.80000
    986.79,  2645.10000,  1691.60000
    987.24,  2655.70000,  1633.20000
    987.69,  2632.10000,  1584.00000
    988.14,  2627.70000,  1540.00000
    988.58,  2646.10000,  1478.60000
    989.03,  2663.30000,  1432.50000
    989.48,  2664.50000,  1398.80000
    989.93,  2667.10000,  1362.10000
    990.38,  2640.80000,  1320.60000
    990.82,  2650.80000,  1265.10000
    991.27,  2670.20000,  1206.50000
    991.72,  2687.90000,  1159.80000
    992.17,  2671.70000,  1123.50000
    992.61,  2680.50000,  1092.70000
    993.06,  2656.90000,  1072.50000
    993.51,  2678.80000,  1047.10000
    993.96,  2676.90000,  1031.80000
    994.41,  2661.50000,  1013.30000
    994.85,  2642.40000,   980.00000
    995.30,  2661.20000,   955.90000
    995.75,  2655.60000,   945.60000
    996.20,  2684.50000,   930.90000
    996.64,  2666.10000,   914.00000
    997.09,  2633.30000,   898.20000
    997.54,  2633.30000,   866.90000
    997.99,  2630.10000,   846.20000
    998.43,  2630.70000,   840.20000
    998.88,  2633.50000,   833.50000
    999.33,  2638.70000,   814.30000
    999.77,  2668.20000,   787.60000
   1000.22,  2687.30000,   776.80000
   1000.67,  2695.80000,   767.40000
   1001.12,  2692.70000,   782.60000
   1001.56,  2657.50000,   788.00000
   1002.01,  2640.80000,   781.70000
   1002.46,  2657.30000,   768.20000
   1002.91,  2639.50000,   759.80000
   1003.35,  2648.90000,   755.20000
   1003.80,  2636.40000,   757.70000
   1004.25,  2638.40000,   753.90000
   1004.69,  2645.50000,   756.20000
   1005.14,  2641.10000,   750.70000
   1005.59,  2645.50000,   744.60000
   1006.04,  2679.20000,   743.10000
   1006.48,  2688.90000,   739.10000
   1006.93,  2711.30000,   743.50000
   1007.38,  2698.30000,   749.10000
   1007.82,  2653.10000,   744.20000
   1008.27,  2632.60000,   739.60000
   1008.72,  2626.10000,   728.10000
   1009.16,  2624.80000,   725.80000
   1009.61,  2636.40000,   726.00000
   1010.06,  2635.90000,   732.60000
   1010.50,  2663.50000,   736.00000
   1010.95,  2689.00000,   738.60000
   1011.40,  2693.60000,   731.80000
   1011.85,  2665.40000,   740.90000
   1012.29,  2652.90000,   736.80000
   1012.74,  2617.40000,   742.90000
   1013.19,  2614.60000,   746.50000
   1013.63,  2659.10000,   742.20000
   1014.08,  2691.50000,   728.40000
   1014.53,  2681.10000,   737.90000
   1014.97,  2675.60000,   729.70000
   1015.42,  2655.00000,   722.30000
   1015.86,  2622.10000,   719.40000
   1016.31,  2646.70000,   706.10000
   1016.76,  2670.10000,   700.60000
   1017.20,  2649.30000,   715.40000
   1017.65,  2625.30000,   728.10000
   1018.10,  2619.20000,   742.20000
   1018.54,  2603.10000,   745.70000
   1018.99,  2630.40000,   738.70000
   1019.44,  2638.80000,   740.00000
   1019.88,  2635.90000,   738.90000
   1020.33,  2639.10000,   733.00000
   1020.78,  2640.30000,   740.40000
   1021.22,  2651.10000,   731.70000
   1021.67,  2653.40000,   733.10000
   1022.11,  2641.20000,   737.90000
   1022.56,  2647.20000,   732.50000
   1023.01,  2642.50000,   726.90000
   1023.45,  2622.50000,   732.80000
   1023.90,  2622.80000,   727.90000
   1024.34,  2606.50000,   724.90000
   1024.79,  2608.00000,   731.40000
   1025.24,  2634.60000,   730.30000
   1025.68,  2630.90000,   730.20000
   1026.13,  2635.30000,   728.80000
   1026.58,  2635.80000,   736.10000
   1027.02,  2650.10000,   732.50000
   1027.47,  2650.80000,   742.80000
   1027.91,  2652.50000,   741.30000
   1028.36,  2623.80000,   738.80000
   1028.80,  2616.70000,   731.80000
   1029.25,  2595.40000,   739.30000
   1029.70,  2605.00000,   735.60000
   1030.14,  2604.80000,   741.30000
   1030.59,  2600.30000,   735.70000
   1031.03,  2605.40000,   724.90000
   1031.48,  2621.70000,   721.50000
   1031.93,  2652.50000,   727.90000
   1032.37,  2679.50000,   735.70000
   1032.82,  2677.10000,   757.00000
   1033.26,  2673.60000,   764.80000
   1033.71,  2652.10000,   755.90000
   1034.15,  2636.60000,   756.90000
   1034.60,  2634.70000,   753.70000
   1035.05,  2650.10000,   742.90000
   1035.49,  2638.50000,   738.10000
   1035.94,  2645.80000,   732.40000
   1036.38,  2618.00000,   725.60000
   1036.83,  2597.70000,   733.70000
   1037.27,  2583.20000,   743.40000
   1037.72,  2587.20000,   742.10000
   1038.16,  2683.20000,   744.20000
   1038.61,  2761.90000,   741.80000
   1039.05,  2772.10000,   743.20000
   1039.50,  2752.70000,   751.80000
   1039.95,  2691.90000,   759.20000
   1040.39,  2619.90000,   763.70000
   1040.84,  2627.80000,   763.60000
   1041.28,  2634.50000,   755.60000
   1041.73,  2631.10000,   758.60000
   1042.17,  2634.00000,   763.80000
   1042.62,  2632.20000,   764.20000
   1043.06,  2641.30000,   770.00000
   1043.51,  2620.60000,   766.80000
   1043.95,  2630.00000,   769.90000
   1044.40,  2622.10000,   776.00000
   1044.84,  2606.20000,   781.40000
   1045.29,  2596.50000,   777.90000
   1045.73,  2610.50000,   773.30000
   1046.18,  2604.90000,   768.60000
   1046.62,  2603.30000,   778.20000
   1047.07,  2596.40000,   782.90000
   1047.51,  2581.10000,   783.30000
   1047.96,  2609.80000,   778.40000
   1048.40,  2656.10000,   779.20000
   1048.85,  2671.80000,   783.60000
   1049.29,  2655.30000,   792.40000
   1049.74,  2608.10000,   801.10000
   1050.18,  2571.70000,   797.10000
   1050.63,  2582.90000,   782.40000
   1051.07,  2599.60000,   780.80000
   1051.52,  2619.90000,   788.00000
   1051.96,  2609.80000,   789.90000
   1052.41,  2586.10000,   800.20000
   1052.85,  2576.40000,   811.20000
   1053.30,  2571.40000,   804.30000
   1053.74,  2571.90000,   798.90000
   1054.18,  2583.00000,   797.90000
   1054.63,  2569.00000,   792.00000
   1055.07,  2558.30000,   797.50000
   1055.52,  2549.20000,   811.50000
   1055.96,  2541.20000,   813.20000
   1056.41,  2542.90000,   807.20000
   1056.85,  2542.00000,   812.30000
   1057.30,  2551.80000,   811.30000
   1057.74,  2553.90000,   810.00000
   1058.18,  2552.70000,   810.90000
   1058.63,  2521.20000,   812.70000
   1059.07,  2520.50000,   809.90000
   1059.52,  2523.60000,   820.60000
   1059.96,  2535.30000,   823.10000
   1060.41,  2540.60000,   818.70000
   1060.85,  2551.10000,   814.70000
   1061.30,  2532.50000,   826.00000
   1061.74,  2522.30000,   838.10000
   1062.18,  2512.70000,   849.30000
   1062.63,  2494.30000,   853.90000
   1063.07,  2492.80000,   849.10000
   1063.52,  2501.90000,   835.60000
   1063.96,  2523.40000,   836.90000
   1064.40,  2525.60000,   837.20000
   1064.85,  2514.60000,   844.70000
   1065.29,  2493.20000,   851.80000
   1065.74,  2477.80000,   858.30000
   1066.18,  2449.20000,   860.20000
