2D Measure spectrum data V5.74

<< MEASURE 1 >>
Data count = 2048
Exposure time = 30000 msec
Average = 10
Inspected time = 2020/10/19 18:37

Wave-dcm-1,Dark spec.  ,Spectrum
    108.17,  2240.60000,   535.40000
    108.66,  2247.60000,   526.80000
    109.15,  2253.70000,   525.80000
    109.65,  2280.90000,   525.10000
    110.14,  2291.10000,   522.70000
    110.63,  2299.40000,   524.00000
    111.13,  2317.20000,   516.60000
    111.62,  2309.00000,   507.00000
    112.11,  2311.30000,   514.20000
    112.60,  2333.00000,   516.90000
    113.10,  2325.30000,   503.90000
    113.59,  2346.70000,   499.80000
    114.08,  2365.60000,   499.90000
    114.58,  2355.30000,   500.80000
    115.07,  2393.90000,   514.50000
    115.56,  2408.80000,   511.90000
    116.06,  2402.20000,   499.70000
    116.55,  2406.00000,   488.40000
    117.04,  2394.60000,   488.10000
    117.53,  2372.10000,   491.50000
    118.03,  2405.80000,   502.90000
    118.52,  2413.10000,   508.60000
    119.01,  2399.90000,   522.00000
    119.51,  2491.30000,   515.50000
    120.00,  2573.10000,   532.50000
    120.49,  2611.70000,   541.80000
    120.98,  2605.10000,   563.80000
    121.48,  2528.50000,   575.70000
    121.97,  2421.70000,   593.30000
    122.46,  2427.90000,   581.60000
    122.95,  2448.20000,   596.90000
    123.45,  2489.60000,   631.00000
    123.94,  2492.00000,   693.90000
    124.43,  2511.10000,   726.60000
    124.92,  2536.20000,   738.50000
    125.42,  2534.30000,   717.70000
    125.91,  2545.30000,   692.80000
    126.40,  2535.90000,   689.10000
    126.89,  2513.00000,   706.60000
    127.39,  2506.20000,   720.00000
    127.88,  2507.90000,   732.20000
    128.37,  2504.70000,   754.80000
    128.86,  2528.00000,   776.80000
    129.35,  2520.70000,   792.10000
    129.85,  2525.90000,   806.90000
    130.34,  2519.70000,   810.80000
    130.83,  2522.60000,   826.10000
    131.32,  2528.90000,   845.70000
    131.81,  2536.80000,   858.30000
    132.31,  2536.20000,   864.70000
    132.80,  2538.60000,   866.10000
    133.29,  2528.10000,   851.50000
    133.78,  2532.10000,   863.30000
    134.27,  2547.60000,   875.10000
    134.77,  2557.30000,   883.60000
    135.26,  2578.00000,   897.30000
    135.75,  2579.50000,   907.10000
    136.24,  2593.80000,   914.80000
    136.73,  2578.80000,   920.10000
    137.23,  2594.80000,   926.50000
    137.72,  2584.20000,   932.20000
    138.21,  2579.10000,   942.20000
    138.70,  2570.00000,   944.30000
    139.19,  2599.10000,   957.90000
    139.68,  2588.30000,   962.10000
    140.18,  2593.40000,   973.50000
    140.67,  2601.20000,   982.00000
    141.16,  2603.30000,   989.40000
    141.65,  2599.10000,   989.80000
    142.14,  2601.50000,   992.30000
    142.63,  2617.90000,  1003.10000
    143.13,  2621.90000,  1014.60000
    143.62,  2657.60000,  1027.70000
    144.11,  2656.60000,  1044.00000
    144.60,  2615.00000,  1060.80000
    145.09,  2598.90000,  1070.20000
    145.58,  2649.30000,  1085.80000
    146.07,  2673.40000,  1093.50000
    146.56,  2683.70000,  1107.10000
    147.06,  2679.10000,  1108.70000
    147.55,  2641.70000,  1117.40000
    148.04,  2599.80000,  1117.80000
    148.53,  2635.90000,  1132.10000
    149.02,  2612.10000,  1158.00000
    149.51,  2680.90000,  1190.30000
    150.00,  2739.90000,  1213.10000
    150.49,  2758.60000,  1246.60000
    150.99,  2753.20000,  1265.70000
    151.48,  2732.30000,  1295.70000
    151.97,  2645.80000,  1326.00000
    152.46,  2654.60000,  1352.80000
    152.95,  2633.60000,  1372.60000
    153.44,  2636.90000,  1387.80000
    153.93,  2653.20000,  1394.80000
    154.42,  2674.80000,  1395.30000
    154.91,  2654.90000,  1396.10000
    155.40,  2638.70000,  1405.00000
    155.89,  2620.60000,  1411.90000
    156.39,  2643.80000,  1424.10000
    156.88,  2623.60000,  1439.00000
    157.37,  2636.70000,  1458.80000
    157.86,  2643.60000,  1483.60000
    158.35,  2646.40000,  1514.70000
    158.84,  2666.50000,  1536.90000
    159.33,  2714.80000,  1560.40000
    159.82,  2726.40000,  1581.40000
    160.31,  2737.60000,  1605.80000
    160.80,  2771.80000,  1632.00000
    161.29,  2716.50000,  1658.00000
    161.78,  2678.00000,  1670.00000
    162.27,  2646.30000,  1683.20000
    162.76,  2646.60000,  1693.70000
    163.25,  2663.80000,  1702.00000
    163.74,  2702.50000,  1727.50000
    164.23,  2705.90000,  1749.40000
    164.72,  2725.00000,  1779.10000
    165.21,  2703.90000,  1789.60000
    165.70,  2682.30000,  1809.60000
    166.20,  2717.20000,  1821.70000
    166.69,  2739.20000,  1824.10000
    167.18,  2749.60000,  1836.40000
    167.67,  2746.60000,  1864.70000
    168.16,  2724.30000,  1863.20000
    168.65,  2674.40000,  1867.70000
    169.14,  2702.40000,  1856.90000
    169.63,  2703.70000,  1832.30000
    170.12,  2686.80000,  1827.70000
    170.61,  2686.90000,  1808.40000
    171.10,  2740.70000,  1799.40000
    171.59,  2744.30000,  1793.80000
    172.08,  2754.60000,  1808.80000
    172.57,  2744.70000,  1827.80000
    173.06,  2735.10000,  1838.30000
    173.55,  2726.30000,  1835.50000
    174.04,  2707.90000,  1830.30000
    174.53,  2707.30000,  1828.30000
    175.02,  2704.10000,  1845.30000
    175.50,  2725.80000,  1860.40000
    175.99,  2762.00000,  1857.50000
    176.48,  2784.60000,  1863.90000
    176.97,  2756.80000,  1843.70000
    177.46,  2757.40000,  1830.40000
    177.95,  2725.60000,  1821.20000
    178.44,  2709.20000,  1814.40000
    178.93,  2696.00000,  1800.40000
    179.42,  2717.10000,  1798.20000
    179.91,  2729.20000,  1799.40000
    180.40,  2739.20000,  1810.70000
    180.89,  2741.30000,  1823.10000
    181.38,  2729.20000,  1842.80000
    181.87,  2719.70000,  1859.20000
    182.36,  2719.20000,  1873.40000
    182.85,  2686.90000,  1875.40000
    183.34,  2710.40000,  1864.90000
    183.83,  2723.90000,  1841.00000
    184.32,  2725.50000,  1832.00000
    184.81,  2775.00000,  1826.90000
    185.29,  2775.40000,  1820.00000
    185.78,  2742.90000,  1812.20000
    186.27,  2748.50000,  1807.20000
    186.76,  2735.10000,  1799.40000
    187.25,  2702.70000,  1804.20000
    187.74,  2781.50000,  1797.90000
    188.23,  2807.00000,  1795.60000
    188.72,  2838.00000,  1796.30000
    189.21,  2824.40000,  1802.40000
    189.70,  2791.20000,  1806.60000
    190.19,  2741.90000,  1822.30000
    190.67,  2725.80000,  1822.60000
    191.16,  2719.70000,  1828.90000
    191.65,  2736.10000,  1818.50000
    192.14,  2725.70000,  1814.30000
    192.63,  2750.60000,  1810.80000
    193.12,  2764.00000,  1815.90000
    193.61,  2746.10000,  1816.30000
    194.10,  2760.90000,  1811.00000
    194.59,  2751.40000,  1806.90000
    195.07,  2742.60000,  1808.80000
    195.56,  2755.00000,  1821.90000
    196.05,  2741.70000,  1823.80000
    196.54,  2732.70000,  1822.10000
    197.03,  2755.30000,  1816.60000
    197.52,  2795.70000,  1817.90000
    198.01,  2800.20000,  1822.80000
    198.49,  2798.10000,  1830.30000
    198.98,  2790.80000,  1811.00000
    199.47,  2753.20000,  1795.90000
    199.96,  2744.20000,  1786.90000
    200.45,  2761.70000,  1777.90000
    200.94,  2740.30000,  1780.80000
    201.43,  2738.10000,  1786.70000
    201.91,  2727.40000,  1780.90000
    202.40,  2717.60000,  1776.10000
    202.89,  2718.90000,  1771.30000
    203.38,  2733.10000,  1775.30000
    203.87,  2743.30000,  1773.20000
    204.36,  2729.50000,  1786.80000
    204.84,  2729.80000,  1794.50000
    205.33,  2747.60000,  1800.10000
    205.82,  2763.50000,  1802.50000
    206.31,  2758.70000,  1801.90000
    206.80,  2764.20000,  1792.90000
    207.28,  2765.80000,  1789.80000
    207.77,  2780.40000,  1780.60000
    208.26,  2781.80000,  1787.30000
    208.75,  2785.70000,  1779.70000
    209.24,  2768.50000,  1777.50000
    209.72,  2779.50000,  1783.60000
    210.21,  2792.90000,  1799.00000
    210.70,  2777.50000,  1808.20000
    211.19,  2791.60000,  1816.50000
    211.68,  2803.50000,  1818.90000
    212.16,  2809.60000,  1826.70000
    212.65,  2813.60000,  1827.20000
    213.14,  2794.80000,  1835.30000
    213.63,  2778.10000,  1827.30000
    214.12,  2758.50000,  1832.30000
    214.60,  2770.80000,  1845.90000
    215.09,  2786.20000,  1857.30000
    215.58,  2784.20000,  1868.10000
    216.07,  2775.70000,  1881.40000
    216.55,  2780.50000,  1888.70000
    217.04,  2716.30000,  1909.50000
    217.53,  2717.70000,  1918.50000
    218.02,  2719.30000,  1935.50000
    218.50,  2730.00000,  1952.60000
    218.99,  2753.10000,  1968.70000
    219.48,  2777.00000,  1989.60000
    219.97,  2741.30000,  2003.90000
    220.45,  2752.40000,  2019.80000
    220.94,  2757.60000,  2036.30000
    221.43,  2775.70000,  2061.70000
    221.92,  2800.80000,  2074.60000
    222.40,  2792.10000,  2105.50000
    222.89,  2778.00000,  2130.50000
    223.38,  2790.50000,  2162.90000
    223.86,  2812.30000,  2181.50000
    224.35,  2834.70000,  2201.70000
    224.84,  2845.10000,  2200.10000
    225.33,  2832.60000,  2211.80000
    225.81,  2805.50000,  2217.70000
    226.30,  2783.10000,  2227.90000
    226.79,  2775.10000,  2231.40000
    227.27,  2765.10000,  2228.10000
    227.76,  2768.90000,  2220.40000
    228.25,  2797.20000,  2206.30000
    228.74,  2813.40000,  2184.50000
    229.22,  2824.90000,  2166.70000
    229.71,  2811.90000,  2151.30000
    230.20,  2792.20000,  2127.90000
    230.68,  2782.60000,  2097.20000
    231.17,  2779.50000,  2046.40000
    231.66,  2758.00000,  2008.50000
    232.14,  2753.70000,  1973.80000
    232.63,  2742.60000,  1949.80000
    233.12,  2766.40000,  1920.90000
    233.60,  2787.00000,  1899.30000
    234.09,  2768.90000,  1871.50000
    234.58,  2749.10000,  1862.90000
    235.06,  2747.70000,  1847.10000
    235.55,  2741.80000,  1832.20000
    236.04,  2739.50000,  1812.40000
    236.52,  2762.90000,  1786.10000
    237.01,  2747.20000,  1765.90000
    237.50,  2786.90000,  1746.10000
    237.98,  2779.50000,  1734.80000
    238.47,  2832.90000,  1732.40000
    238.96,  2833.30000,  1735.20000
    239.44,  2827.00000,  1717.70000
    239.93,  2818.70000,  1710.10000
    240.41,  2780.30000,  1688.60000
    240.90,  2717.00000,  1683.00000
    241.39,  2747.50000,  1669.60000
    241.87,  2790.60000,  1675.00000
    242.36,  2809.80000,  1674.40000
    242.85,  2851.40000,  1678.20000
    243.33,  2830.00000,  1680.90000
    243.82,  2804.10000,  1681.40000
    244.30,  2775.30000,  1668.10000
    244.79,  2779.20000,  1671.90000
    245.28,  2768.60000,  1665.20000
    245.76,  2771.40000,  1652.70000
    246.25,  2754.00000,  1658.40000
    246.74,  2779.80000,  1651.90000
    247.22,  2797.00000,  1658.40000
    247.71,  2787.40000,  1669.00000
    248.19,  2774.10000,  1668.70000
    248.68,  2765.40000,  1670.60000
    249.16,  2738.30000,  1664.20000
    249.65,  2782.20000,  1649.10000
    250.14,  2798.70000,  1647.50000
    250.62,  2766.80000,  1650.60000
    251.11,  2743.80000,  1645.80000
    251.59,  2722.30000,  1660.00000
    252.08,  2719.60000,  1645.90000
    252.57,  2745.60000,  1637.10000
    253.05,  2753.00000,  1634.20000
    253.54,  2779.60000,  1628.80000
    254.02,  2812.50000,  1616.70000
    254.51,  2816.80000,  1622.80000
    254.99,  2813.80000,  1622.00000
    255.48,  2787.10000,  1618.90000
    255.96,  2750.70000,  1628.80000
    256.45,  2771.80000,  1620.50000
    256.94,  2781.70000,  1609.10000
    257.42,  2775.00000,  1605.60000
    257.91,  2786.20000,  1593.90000
    258.39,  2789.50000,  1585.50000
    258.88,  2770.90000,  1595.10000
    259.36,  2788.10000,  1604.50000
    259.85,  2785.30000,  1605.80000
    260.33,  2793.20000,  1604.80000
    260.82,  2818.70000,  1597.00000
    261.30,  2825.20000,  1593.90000
    261.79,  2804.00000,  1593.50000
    262.27,  2776.20000,  1605.40000
    262.76,  2763.00000,  1599.70000
    263.24,  2767.50000,  1598.00000
    263.73,  2799.40000,  1603.30000
    264.22,  2795.70000,  1602.60000
    264.70,  2863.40000,  1603.30000
    265.19,  2879.30000,  1615.90000
    265.67,  2875.60000,  1619.90000
    266.16,  2852.60000,  1621.60000
    266.64,  2817.10000,  1636.60000
    267.13,  2748.60000,  1644.90000
    267.61,  2752.40000,  1652.30000
    268.10,  2771.00000,  1658.80000
    268.58,  2772.50000,  1655.40000
    269.06,  2783.10000,  1643.80000
    269.55,  2801.20000,  1642.50000
    270.03,  2812.20000,  1645.30000
    270.52,  2811.10000,  1641.80000
    271.00,  2821.40000,  1646.90000
    271.49,  2806.90000,  1659.50000
    271.97,  2797.90000,  1674.90000
    272.46,  2809.80000,  1685.40000
    272.94,  2806.80000,  1702.90000
    273.43,  2804.90000,  1702.70000
    273.91,  2776.70000,  1714.70000
    274.40,  2766.30000,  1718.30000
    274.88,  2757.00000,  1714.10000
    275.37,  2771.00000,  1706.40000
    275.85,  2770.70000,  1715.50000
    276.33,  2772.00000,  1734.40000
    276.82,  2776.40000,  1754.80000
    277.30,  2785.30000,  1771.70000
    277.79,  2783.20000,  1765.50000
    278.27,  2797.90000,  1757.60000
    278.76,  2808.80000,  1770.40000
    279.24,  2813.50000,  1788.20000
    279.73,  2815.30000,  1803.60000
    280.21,  2807.60000,  1823.30000
    280.69,  2788.40000,  1823.10000
    281.18,  2786.70000,  1829.90000
    281.66,  2799.70000,  1846.60000
    282.15,  2836.20000,  1853.50000
    282.63,  2832.60000,  1856.70000
    283.11,  2827.80000,  1859.80000
    283.60,  2822.50000,  1871.40000
    284.08,  2837.60000,  1871.30000
    284.57,  2812.60000,  1878.00000
    285.05,  2808.10000,  1887.70000
    285.53,  2778.10000,  1893.10000
    286.02,  2753.80000,  1886.00000
    286.50,  2768.80000,  1895.60000
    286.99,  2794.90000,  1893.70000
    287.47,  2781.00000,  1901.60000
    287.95,  2772.40000,  1910.70000
    288.44,  2769.80000,  1907.90000
    288.92,  2767.70000,  1890.00000
    289.41,  2780.20000,  1881.10000
    289.89,  2800.90000,  1876.80000
    290.37,  2805.90000,  1875.10000
    290.86,  2820.70000,  1881.30000
    291.34,  2796.80000,  1881.70000
    291.82,  2782.20000,  1873.10000
    292.31,  2766.00000,  1858.70000
    292.79,  2784.40000,  1840.00000
    293.28,  2786.20000,  1825.90000
    293.76,  2794.00000,  1820.20000
    294.24,  2796.50000,  1821.90000
    294.73,  2812.00000,  1815.30000
    295.21,  2810.00000,  1810.70000
    295.69,  2823.20000,  1798.10000
    296.18,  2795.30000,  1785.20000
    296.66,  2760.80000,  1767.70000
    297.14,  2759.40000,  1761.00000
    297.63,  2774.60000,  1748.90000
    298.11,  2787.80000,  1743.20000
    298.59,  2821.70000,  1738.10000
    299.08,  2822.30000,  1737.20000
    299.56,  2819.80000,  1723.30000
    300.04,  2841.10000,  1704.50000
    300.53,  2850.30000,  1685.90000
    301.01,  2848.80000,  1671.50000
    301.49,  2834.70000,  1672.70000
    301.98,  2803.40000,  1671.80000
    302.46,  2775.80000,  1666.20000
    302.94,  2781.70000,  1648.30000
    303.42,  2781.10000,  1638.20000
    303.91,  2767.50000,  1622.20000
    304.39,  2744.40000,  1618.40000
    304.87,  2756.80000,  1601.50000
    305.36,  2770.90000,  1600.00000
    305.84,  2805.50000,  1580.70000
    306.32,  2838.90000,  1568.80000
    306.81,  2822.70000,  1554.80000
    307.29,  2796.70000,  1546.40000
    307.77,  2789.90000,  1542.50000
    308.25,  2787.20000,  1541.30000
    308.74,  2799.10000,  1540.30000
    309.22,  2795.20000,  1528.90000
    309.70,  2781.80000,  1517.60000
    310.18,  2774.30000,  1503.10000
    310.67,  2789.70000,  1489.80000
    311.15,  2808.20000,  1480.80000
    311.63,  2820.10000,  1489.70000
    312.12,  2828.70000,  1480.90000
    312.60,  2794.10000,  1487.60000
    313.08,  2763.10000,  1492.40000
    313.56,  2751.00000,  1480.90000
    314.05,  2742.00000,  1467.30000
    314.53,  2764.30000,  1460.30000
    315.01,  2831.50000,  1447.20000
    315.49,  2831.00000,  1444.30000
    315.98,  2832.60000,  1458.20000
    316.46,  2811.00000,  1455.40000
    316.94,  2767.10000,  1455.70000
    317.42,  2750.30000,  1459.20000
    317.90,  2747.00000,  1466.30000
    318.39,  2726.70000,  1455.40000
    318.87,  2775.30000,  1445.40000
    319.35,  2804.30000,  1428.20000
    319.83,  2819.20000,  1418.30000
    320.32,  2831.00000,  1419.80000
    320.80,  2837.00000,  1430.10000
    321.28,  2792.70000,  1431.30000
    321.76,  2833.20000,  1423.00000
    322.24,  2837.00000,  1413.80000
    322.73,  2853.30000,  1407.30000
    323.21,  2849.50000,  1410.50000
    323.69,  2848.00000,  1414.70000
    324.17,  2784.60000,  1418.80000
    324.65,  2756.60000,  1416.60000
    325.14,  2764.40000,  1407.80000
    325.62,  2779.50000,  1405.10000
    326.10,  2834.10000,  1395.90000
    326.58,  2854.50000,  1394.60000
    327.06,  2819.80000,  1397.10000
    327.55,  2831.40000,  1403.60000
    328.03,  2856.40000,  1406.50000
    328.51,  2857.80000,  1406.80000
    328.99,  2879.70000,  1399.60000
    329.47,  2864.10000,  1389.60000
    329.95,  2790.00000,  1404.00000
    330.44,  2796.20000,  1412.80000
    330.92,  2766.30000,  1419.30000
    331.40,  2750.60000,  1413.10000
    331.88,  2744.90000,  1411.20000
    332.36,  2756.10000,  1404.70000
    332.84,  2774.70000,  1416.40000
    333.33,  2824.00000,  1411.80000
    333.81,  2832.60000,  1403.20000
    334.29,  2845.30000,  1389.20000
    334.77,  2845.00000,  1379.80000
    335.25,  2831.80000,  1379.10000
    335.73,  2841.20000,  1370.90000
    336.21,  2837.40000,  1364.30000
    336.69,  2821.40000,  1366.00000
    337.18,  2805.60000,  1379.10000
    337.66,  2785.80000,  1382.40000
    338.14,  2759.20000,  1391.60000
    338.62,  2752.30000,  1372.20000
    339.10,  2774.80000,  1359.00000
    339.58,  2817.10000,  1362.80000
    340.06,  2835.30000,  1365.60000
    340.54,  2847.30000,  1362.10000
    341.03,  2830.20000,  1367.60000
    341.51,  2804.50000,  1357.60000
    341.99,  2799.60000,  1356.10000
    342.47,  2809.70000,  1355.60000
    342.95,  2804.10000,  1350.40000
    343.43,  2799.80000,  1356.80000
    343.91,  2798.60000,  1369.10000
    344.39,  2778.00000,  1373.40000
    344.87,  2762.60000,  1365.80000
    345.35,  2770.80000,  1363.90000
    345.84,  2778.90000,  1367.60000
    346.32,  2827.90000,  1367.70000
    346.80,  2851.90000,  1366.30000
    347.28,  2852.00000,  1356.60000
    347.76,  2831.60000,  1337.40000
    348.24,  2817.80000,  1346.80000
    348.72,  2841.80000,  1354.40000
    349.20,  2865.30000,  1359.90000
    349.68,  2843.30000,  1368.70000
    350.16,  2808.20000,  1371.50000
    350.64,  2760.50000,  1375.50000
    351.12,  2749.90000,  1372.30000
    351.60,  2812.70000,  1361.90000
    352.08,  2858.90000,  1356.10000
    352.56,  2880.50000,  1352.30000
    353.04,  2873.80000,  1352.70000
    353.53,  2850.70000,  1361.30000
    354.01,  2835.00000,  1356.60000
    354.49,  2845.20000,  1357.50000
    354.97,  2841.80000,  1352.50000
    355.45,  2836.50000,  1353.00000
    355.93,  2804.20000,  1359.30000
    356.41,  2819.60000,  1356.70000
    356.89,  2804.10000,  1356.70000
    357.37,  2820.50000,  1352.40000
    357.85,  2800.80000,  1344.30000
    358.33,  2796.20000,  1343.00000
    358.81,  2764.50000,  1357.30000
    359.29,  2776.80000,  1352.70000
    359.77,  2794.20000,  1351.20000
    360.25,  2826.00000,  1347.80000
    360.73,  2818.80000,  1357.80000
    361.21,  2808.70000,  1364.80000
    361.69,  2814.30000,  1377.10000
    362.17,  2810.80000,  1379.90000
    362.65,  2828.50000,  1372.20000
    363.13,  2835.60000,  1359.00000
    363.61,  2837.70000,  1360.50000
    364.09,  2801.00000,  1358.80000
    364.57,  2806.40000,  1349.90000
    365.05,  2803.20000,  1353.00000
    365.53,  2787.30000,  1359.20000
    366.01,  2807.70000,  1356.50000
    366.49,  2850.40000,  1358.50000
    366.97,  2813.10000,  1360.00000
    367.45,  2826.80000,  1358.10000
    367.93,  2848.30000,  1364.40000
    368.41,  2830.40000,  1368.70000
    368.89,  2837.20000,  1362.80000
    369.37,  2845.00000,  1362.30000
    369.85,  2796.60000,  1357.20000
    370.33,  2805.40000,  1360.90000
    370.80,  2829.90000,  1368.00000
    371.28,  2828.10000,  1372.50000
    371.76,  2805.00000,  1388.70000
    372.24,  2783.30000,  1403.90000
    372.72,  2780.60000,  1403.10000
    373.20,  2795.60000,  1391.30000
    373.68,  2828.30000,  1382.90000
    374.16,  2854.40000,  1374.10000
    374.64,  2829.50000,  1392.10000
    375.12,  2802.70000,  1395.00000
    375.60,  2827.10000,  1406.70000
    376.08,  2804.50000,  1400.60000
    376.56,  2791.60000,  1408.70000
    377.04,  2794.50000,  1407.40000
    377.52,  2793.70000,  1416.80000
    377.99,  2790.60000,  1416.30000
    378.47,  2821.30000,  1424.30000
    378.95,  2810.60000,  1420.10000
    379.43,  2828.20000,  1420.80000
    379.91,  2827.90000,  1421.00000
    380.39,  2874.00000,  1412.80000
    380.87,  2890.40000,  1411.80000
    381.35,  2883.00000,  1409.00000
    381.83,  2854.50000,  1408.70000
    382.31,  2823.90000,  1410.90000
    382.79,  2777.70000,  1427.00000
    383.26,  2793.00000,  1433.60000
    383.74,  2790.20000,  1440.40000
    384.22,  2789.70000,  1443.20000
    384.70,  2797.60000,  1446.40000
    385.18,  2773.00000,  1446.00000
    385.66,  2782.80000,  1453.30000
    386.14,  2795.00000,  1455.90000
    386.62,  2814.30000,  1448.00000
    387.09,  2833.80000,  1446.00000
    387.57,  2842.80000,  1455.40000
    388.05,  2825.10000,  1458.50000
    388.53,  2819.60000,  1463.00000
    389.01,  2818.70000,  1471.50000
    389.49,  2841.40000,  1471.40000
    389.97,  2842.80000,  1476.80000
    390.44,  2832.30000,  1487.40000
    390.92,  2821.00000,  1482.60000
    391.40,  2799.50000,  1483.70000
    391.88,  2802.00000,  1480.80000
    392.36,  2807.20000,  1475.40000
    392.84,  2809.90000,  1481.00000
    393.32,  2817.10000,  1490.60000
    393.79,  2812.80000,  1491.90000
    394.27,  2853.40000,  1505.20000
    394.75,  2860.40000,  1498.50000
    395.23,  2850.50000,  1484.00000
    395.71,  2837.30000,  1483.00000
    396.18,  2839.90000,  1488.00000
    396.66,  2845.60000,  1495.80000
    397.14,  2879.10000,  1507.50000
    397.62,  2841.50000,  1518.20000
    398.10,  2832.10000,  1506.10000
    398.58,  2811.80000,  1512.80000
    399.05,  2831.60000,  1505.90000
    399.53,  2838.50000,  1499.90000
    400.01,  2838.50000,  1490.60000
    400.49,  2809.90000,  1495.80000
    400.97,  2793.90000,  1492.70000
    401.44,  2759.40000,  1494.40000
    401.92,  2795.40000,  1485.10000
    402.40,  2798.30000,  1475.10000
    402.88,  2825.90000,  1470.00000
    403.36,  2842.20000,  1471.60000
    403.83,  2848.80000,  1478.80000
    404.31,  2810.60000,  1475.50000
    404.79,  2819.10000,  1478.10000
    405.27,  2798.30000,  1481.90000
    405.74,  2782.40000,  1491.70000
    406.22,  2813.30000,  1491.40000
    406.70,  2839.40000,  1485.60000
    407.18,  2821.80000,  1484.00000
    407.65,  2809.20000,  1470.10000
    408.13,  2773.30000,  1472.10000
    408.61,  2770.90000,  1477.30000
    409.09,  2790.90000,  1472.20000
    409.56,  2803.30000,  1466.20000
    410.04,  2813.60000,  1462.40000
    410.52,  2815.70000,  1441.40000
    411.00,  2786.20000,  1435.20000
    411.47,  2790.40000,  1430.60000
    411.95,  2772.30000,  1429.70000
    412.43,  2777.20000,  1429.50000
    412.91,  2777.90000,  1435.10000
    413.38,  2799.50000,  1430.80000
    413.86,  2809.50000,  1421.20000
    414.34,  2818.20000,  1411.40000
    414.82,  2823.30000,  1404.90000
    415.29,  2826.10000,  1400.40000
    415.77,  2835.50000,  1403.60000
    416.25,  2829.50000,  1406.40000
    416.72,  2817.10000,  1412.90000
    417.20,  2793.40000,  1422.50000
    417.68,  2762.60000,  1416.80000
    418.16,  2756.90000,  1414.50000
    418.63,  2792.70000,  1403.60000
    419.11,  2793.70000,  1393.40000
    419.59,  2804.40000,  1384.00000
    420.06,  2773.10000,  1385.70000
    420.54,  2742.00000,  1375.70000
    421.02,  2765.20000,  1368.10000
    421.50,  2789.50000,  1368.70000
    421.97,  2800.00000,  1360.40000
    422.45,  2797.50000,  1357.40000
    422.93,  2781.20000,  1367.40000
    423.40,  2755.50000,  1381.50000
    423.88,  2763.70000,  1382.80000
    424.36,  2767.70000,  1386.00000
    424.83,  2788.20000,  1369.80000
    425.31,  2815.90000,  1344.40000
    425.79,  2868.00000,  1328.50000
    426.26,  2899.10000,  1327.50000
    426.74,  2876.40000,  1327.00000
    427.22,  2854.10000,  1336.90000
    427.69,  2830.90000,  1359.10000
    428.17,  2814.00000,  1359.50000
    428.65,  2799.60000,  1363.50000
    429.12,  2833.50000,  1355.20000
    429.60,  2813.70000,  1343.10000
    430.08,  2826.30000,  1328.50000
    430.55,  2825.10000,  1328.20000
    431.03,  2828.90000,  1331.50000
    431.50,  2826.00000,  1336.60000
    431.98,  2832.30000,  1333.90000
    432.46,  2837.20000,  1341.30000
    432.93,  2812.90000,  1343.10000
    433.41,  2789.60000,  1331.00000
    433.89,  2777.70000,  1336.30000
    434.36,  2781.00000,  1331.00000
    434.84,  2779.40000,  1327.30000
    435.31,  2804.10000,  1334.20000
    435.79,  2796.40000,  1342.40000
    436.27,  2793.40000,  1328.90000
    436.74,  2785.80000,  1327.70000
    437.22,  2793.10000,  1317.00000
    437.70,  2795.70000,  1312.00000
    438.17,  2792.50000,  1313.80000
    438.65,  2791.90000,  1323.60000
    439.12,  2796.00000,  1326.10000
    439.60,  2798.90000,  1324.40000
    440.08,  2804.70000,  1321.20000
    440.55,  2793.30000,  1316.90000
    441.03,  2804.30000,  1317.40000
    441.50,  2809.80000,  1319.40000
    441.98,  2821.70000,  1316.00000
    442.45,  2820.30000,  1308.80000
    442.93,  2808.90000,  1312.40000
    443.41,  2796.30000,  1310.80000
    443.88,  2802.80000,  1319.60000
    444.36,  2793.10000,  1325.90000
    444.83,  2798.60000,  1321.80000
    445.31,  2797.00000,  1319.40000
    445.78,  2775.00000,  1314.10000
    446.26,  2778.40000,  1307.50000
    446.74,  2771.90000,  1319.40000
    447.21,  2786.50000,  1330.70000
    447.69,  2816.10000,  1332.70000
    448.16,  2837.30000,  1326.80000
    448.64,  2819.30000,  1321.50000
    449.11,  2803.00000,  1312.00000
    449.59,  2799.60000,  1314.20000
    450.06,  2801.40000,  1308.50000
    450.54,  2802.70000,  1309.60000
    451.02,  2837.90000,  1300.70000
    451.49,  2843.40000,  1307.10000
    451.97,  2838.60000,  1309.00000
    452.44,  2824.60000,  1319.00000
    452.92,  2804.00000,  1316.70000
    453.39,  2774.00000,  1327.90000
    453.87,  2781.80000,  1332.50000
    454.34,  2782.00000,  1344.40000
    454.82,  2795.10000,  1350.60000
    455.29,  2816.20000,  1353.10000
    455.77,  2832.10000,  1336.70000
    456.24,  2813.90000,  1318.50000
    456.72,  2788.60000,  1303.20000
    457.19,  2778.50000,  1298.20000
    457.67,  2781.40000,  1306.20000
    458.14,  2818.30000,  1310.10000
    458.62,  2823.00000,  1316.90000
    459.09,  2820.00000,  1315.80000
    459.57,  2797.00000,  1313.00000
    460.04,  2805.20000,  1309.50000
    460.52,  2802.20000,  1312.80000
    460.99,  2801.40000,  1305.80000
    461.47,  2787.80000,  1304.50000
    461.94,  2760.90000,  1305.80000
    462.42,  2755.90000,  1305.20000
    462.89,  2772.40000,  1315.70000
    463.37,  2798.80000,  1321.30000
    463.84,  2799.70000,  1334.30000
    464.32,  2803.50000,  1339.70000
    464.79,  2799.60000,  1331.80000
    465.26,  2805.70000,  1320.50000
    465.74,  2791.00000,  1320.30000
    466.21,  2816.30000,  1318.90000
    466.69,  2816.70000,  1326.40000
    467.16,  2816.80000,  1337.20000
    467.64,  2808.80000,  1331.00000
    468.11,  2798.90000,  1320.50000
    468.59,  2799.90000,  1315.50000
    469.06,  2815.10000,  1318.60000
    469.54,  2839.00000,  1318.00000
    470.01,  2831.30000,  1327.50000
    470.48,  2790.00000,  1338.30000
    470.96,  2803.20000,  1330.50000
    471.43,  2821.90000,  1333.50000
    471.91,  2839.40000,  1333.70000
    472.38,  2873.40000,  1322.60000
    472.86,  2848.30000,  1323.10000
    473.33,  2794.00000,  1326.90000
    473.80,  2788.60000,  1324.30000
    474.28,  2789.60000,  1329.40000
    474.75,  2811.60000,  1326.60000
    475.23,  2844.20000,  1328.70000
    475.70,  2847.60000,  1328.50000
    476.17,  2825.00000,  1323.40000
    476.65,  2821.80000,  1316.00000
    477.12,  2817.40000,  1309.40000
    477.60,  2788.60000,  1300.60000
    478.07,  2790.20000,  1309.20000
    478.54,  2807.00000,  1311.80000
    479.02,  2818.00000,  1323.10000
    479.49,  2839.30000,  1327.10000
    479.97,  2842.00000,  1334.00000
    480.44,  2821.10000,  1336.90000
    480.91,  2795.00000,  1325.00000
    481.39,  2785.90000,  1311.50000
    481.86,  2794.20000,  1308.60000
    482.34,  2778.70000,  1312.70000
    482.81,  2799.20000,  1324.20000
    483.28,  2821.60000,  1342.20000
    483.76,  2810.20000,  1342.80000
    484.23,  2835.70000,  1335.90000
    484.70,  2831.20000,  1336.70000
    485.18,  2826.50000,  1339.70000
    485.65,  2833.10000,  1335.20000
    486.12,  2834.90000,  1343.20000
    486.60,  2801.80000,  1350.60000
    487.07,  2799.00000,  1345.00000
    487.55,  2807.10000,  1344.90000
    488.02,  2834.10000,  1329.40000
    488.49,  2833.40000,  1319.80000
    488.97,  2846.90000,  1318.20000
    489.44,  2830.90000,  1325.50000
    489.91,  2790.80000,  1324.50000
    490.39,  2782.30000,  1326.20000
    490.86,  2753.00000,  1321.50000
    491.33,  2723.90000,  1324.40000
    491.81,  2760.60000,  1324.90000
    492.28,  2803.10000,  1330.60000
    492.75,  2793.40000,  1332.00000
    493.23,  2844.30000,  1326.80000
    493.70,  2859.50000,  1327.70000
    494.17,  2857.00000,  1332.00000
    494.64,  2848.60000,  1330.80000
    495.12,  2817.20000,  1331.30000
    495.59,  2819.10000,  1321.30000
    496.06,  2857.00000,  1311.30000
    496.54,  2873.90000,  1305.00000
    497.01,  2852.60000,  1307.50000
    497.48,  2833.30000,  1312.50000
    497.96,  2804.60000,  1318.50000
    498.43,  2836.70000,  1317.30000
    498.90,  2833.50000,  1323.10000
    499.37,  2853.20000,  1316.80000
    499.85,  2826.70000,  1306.70000
    500.32,  2825.80000,  1315.00000
    500.79,  2806.00000,  1318.00000
    501.27,  2814.70000,  1320.60000
    501.74,  2800.90000,  1326.60000
    502.21,  2800.00000,  1323.50000
    502.68,  2793.10000,  1311.10000
    503.16,  2787.70000,  1309.70000
    503.63,  2779.00000,  1305.10000
    504.10,  2785.70000,  1307.90000
    504.57,  2772.80000,  1317.10000
    505.05,  2782.60000,  1322.90000
    505.52,  2813.30000,  1310.00000
    505.99,  2816.00000,  1297.00000
    506.46,  2819.10000,  1286.30000
    506.94,  2799.60000,  1293.40000
    507.41,  2784.00000,  1299.80000
    507.88,  2781.70000,  1303.80000
    508.35,  2785.10000,  1298.70000
    508.83,  2774.50000,  1286.50000
    509.30,  2805.60000,  1279.70000
    509.77,  2804.30000,  1287.30000
    510.24,  2809.40000,  1291.90000
    510.72,  2798.10000,  1295.10000
    511.19,  2778.80000,  1305.00000
    511.66,  2782.20000,  1296.40000
    512.13,  2808.30000,  1292.10000
    512.60,  2791.20000,  1292.30000
    513.08,  2787.00000,  1286.70000
    513.55,  2780.00000,  1291.40000
    514.02,  2761.20000,  1291.50000
    514.49,  2771.10000,  1288.80000
    514.97,  2785.40000,  1285.60000
    515.44,  2795.70000,  1287.20000
    515.91,  2800.50000,  1275.10000
    516.38,  2795.20000,  1287.40000
    516.85,  2760.00000,  1287.40000
    517.33,  2736.80000,  1291.40000
    517.80,  2740.00000,  1291.10000
    518.27,  2763.90000,  1293.00000
    518.74,  2812.90000,  1278.50000
    519.21,  2836.20000,  1280.50000
    519.68,  2813.60000,  1291.10000
    520.16,  2782.70000,  1292.80000
    520.63,  2762.40000,  1296.60000
    521.10,  2757.60000,  1289.90000
    521.57,  2786.40000,  1285.60000
    522.04,  2795.70000,  1288.80000
    522.52,  2791.70000,  1301.20000
    522.99,  2779.50000,  1304.50000
    523.46,  2794.20000,  1307.50000
    523.93,  2807.90000,  1296.10000
    524.40,  2828.40000,  1293.70000
    524.87,  2815.70000,  1293.70000
    525.34,  2798.10000,  1296.80000
    525.82,  2785.00000,  1302.50000
    526.29,  2802.50000,  1307.30000
    526.76,  2804.90000,  1314.70000
    527.23,  2822.00000,  1319.10000
    527.70,  2804.80000,  1318.20000
    528.17,  2796.60000,  1312.90000
    528.64,  2783.60000,  1311.00000
    529.12,  2791.00000,  1300.40000
    529.59,  2782.90000,  1310.30000
    530.06,  2787.20000,  1315.40000
    530.53,  2821.70000,  1320.80000
    531.00,  2797.40000,  1322.70000
    531.47,  2758.10000,  1327.20000
    531.94,  2753.00000,  1331.80000
    532.41,  2747.40000,  1340.50000
    532.89,  2771.00000,  1345.10000
    533.36,  2839.50000,  1340.40000
    533.83,  2817.90000,  1344.20000
    534.30,  2800.80000,  1343.70000
    534.77,  2805.50000,  1356.90000
    535.24,  2810.40000,  1358.60000
    535.71,  2803.20000,  1369.60000
    536.18,  2818.00000,  1365.00000
    536.65,  2810.60000,  1368.60000
    537.13,  2790.70000,  1360.40000
    537.60,  2775.90000,  1359.80000
    538.07,  2779.10000,  1361.70000
    538.54,  2762.00000,  1374.40000
    539.01,  2774.10000,  1383.60000
    539.48,  2812.70000,  1390.70000
    539.95,  2825.10000,  1395.50000
    540.42,  2831.90000,  1394.70000
    540.89,  2814.30000,  1402.70000
    541.36,  2792.80000,  1407.10000
    541.83,  2783.30000,  1410.00000
    542.30,  2786.10000,  1411.00000
    542.77,  2794.30000,  1420.70000
    543.25,  2823.50000,  1420.20000
    543.72,  2825.70000,  1434.60000
    544.19,  2824.60000,  1441.10000
    544.66,  2800.20000,  1441.80000
    545.13,  2776.70000,  1451.80000
    545.60,  2759.60000,  1454.10000
    546.07,  2786.40000,  1462.10000
    546.54,  2806.70000,  1470.50000
    547.01,  2812.30000,  1481.50000
    547.48,  2811.40000,  1485.30000
    547.95,  2800.80000,  1477.40000
    548.42,  2783.80000,  1469.50000
    548.89,  2814.00000,  1468.10000
    549.36,  2805.50000,  1473.30000
    549.83,  2787.60000,  1494.10000
    550.30,  2834.40000,  1504.40000
    550.77,  2843.00000,  1497.10000
    551.24,  2846.00000,  1497.70000
    551.71,  2858.50000,  1495.00000
    552.18,  2820.50000,  1504.10000
    552.65,  2764.60000,  1513.30000
    553.12,  2790.10000,  1514.90000
    553.59,  2797.50000,  1511.40000
    554.06,  2804.40000,  1504.50000
    554.53,  2816.20000,  1513.60000
    555.00,  2812.70000,  1515.30000
    555.47,  2796.70000,  1527.00000
    555.94,  2787.90000,  1537.70000
    556.41,  2780.80000,  1543.70000
    556.88,  2765.10000,  1538.70000
    557.35,  2762.00000,  1540.00000
    557.82,  2758.50000,  1538.60000
    558.29,  2768.90000,  1550.40000
    558.76,  2814.60000,  1552.80000
    559.23,  2830.80000,  1558.10000
    559.70,  2832.40000,  1556.30000
    560.17,  2820.30000,  1541.90000
    560.64,  2806.50000,  1542.00000
    561.11,  2792.90000,  1543.20000
    561.58,  2820.20000,  1546.50000
    562.05,  2805.50000,  1545.40000
    562.52,  2815.80000,  1542.30000
    562.99,  2817.00000,  1536.30000
    563.46,  2823.00000,  1543.70000
    563.93,  2817.40000,  1543.10000
    564.40,  2813.20000,  1559.50000
    564.87,  2820.00000,  1545.60000
    565.34,  2838.10000,  1546.40000
    565.81,  2826.70000,  1544.20000
    566.28,  2811.20000,  1556.20000
    566.74,  2786.30000,  1565.70000
    567.21,  2770.30000,  1576.90000
    567.68,  2792.20000,  1563.10000
    568.15,  2790.00000,  1559.70000
    568.62,  2787.40000,  1546.20000
    569.09,  2777.40000,  1560.70000
    569.56,  2771.10000,  1565.70000
    570.03,  2775.30000,  1563.10000
    570.50,  2820.80000,  1553.30000
    570.97,  2828.60000,  1536.80000
    571.44,  2822.00000,  1533.80000
    571.91,  2811.30000,  1543.20000
    572.38,  2800.10000,  1542.20000
    572.84,  2774.90000,  1539.20000
    573.31,  2785.00000,  1544.90000
    573.78,  2781.60000,  1547.20000
    574.25,  2775.40000,  1555.70000
    574.72,  2794.50000,  1552.10000
    575.19,  2793.20000,  1553.60000
    575.66,  2754.70000,  1583.50000
    576.13,  2822.90000,  1511.30000
    576.60,  3009.80000,  1337.90000
    577.07,  3154.90000,  1229.60000
    577.53,  3189.30000,  1218.60000
    578.00,  3080.30000,  1311.70000
    578.47,  2883.90000,  1487.40000
    578.94,  2763.60000,  1568.40000
    579.41,  2760.90000,  1537.20000
    579.88,  2789.90000,  1525.40000
    580.35,  2794.40000,  1535.00000
    580.82,  2791.50000,  1547.20000
    581.28,  2822.10000,  1537.10000
    581.75,  2821.90000,  1532.90000
    582.22,  2817.90000,  1518.40000
    582.69,  2814.50000,  1511.80000
    583.16,  2810.60000,  1505.80000
    583.63,  2793.30000,  1514.90000
    584.10,  2833.00000,  1501.30000
    584.56,  2854.80000,  1492.40000
    585.03,  2849.50000,  1495.70000
    585.50,  2835.20000,  1502.50000
    585.97,  2806.60000,  1503.10000
    586.44,  2796.30000,  1505.40000
    586.91,  2811.30000,  1499.00000
    587.37,  2815.40000,  1490.80000
    587.84,  2799.00000,  1500.20000
    588.31,  2789.20000,  1507.70000
    588.78,  2760.30000,  1511.60000
    589.25,  2792.70000,  1512.20000
    589.72,  2783.20000,  1506.00000
    590.18,  2808.70000,  1497.50000
    590.65,  2829.10000,  1501.20000
    591.12,  2811.80000,  1505.50000
    591.59,  2812.20000,  1498.90000
    592.06,  2800.90000,  1500.80000
    592.52,  2767.00000,  1492.70000
    592.99,  2793.80000,  1477.20000
    593.46,  2797.50000,  1466.30000
    593.93,  2757.40000,  1464.40000
    594.40,  2774.20000,  1465.00000
    594.86,  2784.80000,  1486.00000
    595.33,  2791.40000,  1505.00000
    595.80,  2809.40000,  1514.00000
    596.27,  2812.00000,  1513.60000
    596.74,  2793.70000,  1507.80000
    597.20,  2787.70000,  1492.30000
    597.67,  2808.40000,  1490.20000
    598.14,  2793.40000,  1483.00000
    598.61,  2791.40000,  1479.00000
    599.07,  2790.60000,  1481.20000
    599.54,  2777.80000,  1488.80000
    600.01,  2760.10000,  1489.20000
    600.48,  2819.70000,  1481.20000
    600.95,  2842.30000,  1465.00000
    601.41,  2855.50000,  1449.10000
    601.88,  2839.40000,  1447.80000
    602.35,  2780.30000,  1464.30000
    602.82,  2724.20000,  1480.50000
    603.28,  2744.20000,  1481.50000
    603.75,  2743.60000,  1483.60000
    604.22,  2771.00000,  1470.70000
    604.69,  2784.60000,  1463.70000
    605.15,  2790.50000,  1460.20000
    605.62,  2785.80000,  1457.80000
    606.09,  2787.20000,  1452.60000
    606.56,  2770.40000,  1449.80000
    607.02,  2776.80000,  1443.10000
    607.49,  2768.60000,  1441.50000
    607.96,  2793.50000,  1434.20000
    608.42,  2789.90000,  1433.20000
    608.89,  2841.50000,  1426.60000
    609.36,  2849.50000,  1425.10000
    609.83,  2835.20000,  1428.50000
    610.29,  2794.20000,  1436.50000
    610.76,  2765.40000,  1443.90000
    611.23,  2752.30000,  1437.20000
    611.69,  2788.80000,  1420.10000
    612.16,  2798.80000,  1403.40000
    612.63,  2801.50000,  1391.90000
    613.10,  2781.00000,  1403.60000
    613.56,  2754.90000,  1412.40000
    614.03,  2764.50000,  1401.60000
    614.50,  2770.70000,  1394.70000
    614.96,  2782.70000,  1393.50000
    615.43,  2793.60000,  1396.50000
    615.90,  2808.20000,  1403.40000
    616.36,  2803.60000,  1394.90000
    616.83,  2796.70000,  1372.00000
    617.30,  2786.80000,  1365.20000
    617.76,  2759.30000,  1376.70000
    618.23,  2743.20000,  1376.70000
    618.70,  2738.10000,  1375.50000
    619.16,  2753.50000,  1364.90000
    619.63,  2759.50000,  1348.80000
    620.10,  2760.70000,  1345.90000
    620.56,  2761.90000,  1350.90000
    621.03,  2786.10000,  1342.50000
    621.50,  2791.40000,  1345.80000
    621.96,  2800.50000,  1339.40000
    622.43,  2798.10000,  1331.90000
    622.90,  2793.80000,  1337.30000
    623.36,  2798.70000,  1341.70000
    623.83,  2805.60000,  1337.20000
    624.30,  2795.30000,  1336.20000
    624.76,  2794.60000,  1322.50000
    625.23,  2801.40000,  1308.60000
    625.70,  2813.60000,  1310.80000
    626.16,  2822.50000,  1303.50000
    626.63,  2793.40000,  1303.30000
    627.09,  2784.20000,  1301.50000
    627.56,  2789.60000,  1296.30000
    628.03,  2783.80000,  1293.50000
    628.49,  2791.20000,  1297.60000
    628.96,  2779.70000,  1282.10000
    629.43,  2770.70000,  1280.40000
    629.89,  2771.00000,  1290.80000
    630.36,  2775.50000,  1297.30000
    630.82,  2771.10000,  1294.40000
    631.29,  2772.90000,  1293.30000
    631.76,  2753.90000,  1276.50000
    632.22,  2748.00000,  1264.70000
    632.69,  2758.70000,  1264.70000
    633.15,  2780.60000,  1259.30000
    633.62,  2806.60000,  1254.90000
    634.09,  2820.10000,  1258.80000
    634.55,  2815.30000,  1252.00000
    635.02,  2792.50000,  1256.00000
    635.48,  2783.60000,  1258.90000
    635.95,  2777.00000,  1249.60000
    636.42,  2776.60000,  1251.30000
    636.88,  2762.50000,  1253.90000
    637.35,  2759.30000,  1240.40000
    637.81,  2769.00000,  1240.50000
    638.28,  2779.40000,  1229.60000
    638.74,  2799.70000,  1220.60000
    639.21,  2810.10000,  1215.90000
    639.68,  2784.30000,  1223.60000
    640.14,  2757.20000,  1228.00000
    640.61,  2766.40000,  1232.00000
    641.07,  2747.00000,  1231.70000
    641.54,  2767.70000,  1231.30000
    642.00,  2786.50000,  1218.90000
    642.47,  2797.60000,  1214.80000
    642.93,  2790.30000,  1216.10000
    643.40,  2794.80000,  1213.30000
    643.87,  2773.50000,  1214.70000
    644.33,  2782.30000,  1206.90000
    644.80,  2788.50000,  1203.70000
    645.26,  2785.60000,  1191.60000
    645.73,  2769.40000,  1200.70000
    646.19,  2765.50000,  1206.70000
    646.66,  2765.20000,  1204.40000
    647.12,  2757.00000,  1204.50000
    647.59,  2768.30000,  1198.50000
    648.05,  2788.10000,  1183.40000
    648.52,  2785.00000,  1179.90000
    648.98,  2778.20000,  1189.00000
    649.45,  2762.30000,  1187.00000
    649.91,  2731.20000,  1192.30000
    650.38,  2737.00000,  1179.70000
    650.84,  2786.10000,  1167.80000
    651.31,  2795.30000,  1151.20000
    651.77,  2791.80000,  1156.90000
    652.24,  2764.20000,  1164.40000
    652.70,  2731.40000,  1185.10000
    653.17,  2716.50000,  1194.80000
    653.63,  2741.70000,  1203.30000
    654.10,  2744.40000,  1196.80000
    654.56,  2768.90000,  1177.40000
    655.03,  2767.70000,  1171.50000
    655.49,  2775.50000,  1164.40000
    655.96,  2768.10000,  1164.60000
    656.42,  2756.80000,  1164.80000
    656.89,  2741.90000,  1162.00000
    657.35,  2802.90000,  1148.80000
    657.82,  2840.60000,  1162.70000
    658.28,  2875.90000,  1157.20000
    658.75,  2881.50000,  1159.30000
    659.21,  2844.00000,  1147.80000
    659.68,  2812.60000,  1131.10000
    660.14,  2807.80000,  1119.70000
    660.61,  2769.20000,  1127.40000
    661.07,  2797.20000,  1126.80000
    661.53,  2809.90000,  1130.20000
    662.00,  2826.40000,  1143.10000
    662.46,  2823.20000,  1136.40000
    662.93,  2801.90000,  1134.30000
    663.39,  2776.60000,  1116.10000
    663.86,  2805.60000,  1111.30000
    664.32,  2809.90000,  1107.40000
    664.79,  2827.40000,  1116.10000
    665.25,  2811.40000,  1115.10000
    665.71,  2777.90000,  1127.20000
    666.18,  2741.40000,  1116.50000
    666.64,  2767.70000,  1117.50000
    667.11,  2774.70000,  1107.20000
    667.57,  2802.10000,  1094.10000
    668.04,  2816.50000,  1089.30000
    668.50,  2801.90000,  1090.10000
    668.96,  2772.60000,  1086.10000
    669.43,  2802.80000,  1081.10000
    669.89,  2781.50000,  1077.60000
    670.36,  2771.50000,  1075.50000
    670.82,  2761.20000,  1085.50000
    671.28,  2755.10000,  1091.80000
    671.75,  2751.90000,  1093.00000
    672.21,  2781.70000,  1088.60000
    672.68,  2786.20000,  1087.50000
    673.14,  2811.60000,  1056.00000
    673.60,  2843.10000,  1037.80000
    674.07,  2817.80000,  1038.20000
    674.53,  2788.80000,  1034.70000
    675.00,  2774.50000,  1043.30000
    675.46,  2754.50000,  1053.90000
    675.92,  2758.10000,  1038.00000
    676.39,  2799.50000,  1036.30000
    676.85,  2796.30000,  1037.50000
    677.31,  2800.90000,  1037.00000
    677.78,  2808.10000,  1037.20000
    678.24,  2791.90000,  1035.00000
    678.70,  2776.70000,  1030.20000
    679.17,  2756.90000,  1031.60000
    679.63,  2735.50000,  1028.00000
    680.10,  2729.80000,  1029.60000
    680.56,  2754.90000,  1027.90000
    681.02,  2751.20000,  1027.90000
    681.49,  2781.60000,  1030.00000
    681.95,  2776.50000,  1033.30000
    682.41,  2766.80000,  1038.00000
    682.88,  2757.60000,  1038.00000
    683.34,  2757.20000,  1031.50000
    683.80,  2743.60000,  1014.30000
    684.27,  2766.60000,  1001.80000
    684.73,  2782.70000,   989.50000
    685.19,  2801.80000,   986.10000
    685.66,  2823.10000,   996.80000
    686.12,  2813.30000,  1001.60000
    686.58,  2826.70000,   996.20000
    687.05,  2807.90000,   998.50000
    687.51,  2795.60000,   988.60000
    687.97,  2791.60000,   981.00000
    688.44,  2797.90000,   985.50000
    688.90,  2792.00000,   979.50000
    689.36,  2796.70000,   974.00000
    689.83,  2790.60000,   975.10000
    690.29,  2795.10000,   977.50000
    690.75,  2814.20000,   972.20000
    691.21,  2823.80000,   975.60000
    691.68,  2818.90000,   959.60000
    692.14,  2787.00000,   952.30000
    692.60,  2803.50000,   944.30000
    693.07,  2782.90000,   949.80000
    693.53,  2798.30000,   949.90000
    693.99,  2809.00000,   963.70000
    694.45,  2814.00000,   957.80000
    694.92,  2814.60000,   965.60000
    695.38,  2829.90000,   963.80000
    695.84,  2812.80000,   957.10000
    696.31,  2789.90000,   952.30000
    696.77,  2803.90000,   947.10000
    697.23,  2797.10000,   943.20000
    697.69,  2794.60000,   946.30000
    698.16,  2781.30000,   951.80000
    698.62,  2766.50000,   957.70000
    699.08,  2736.70000,   961.20000
    699.54,  2749.20000,   947.60000
    700.01,  2741.10000,   933.10000
    700.47,  2737.50000,   921.90000
    700.93,  2745.30000,   919.90000
    701.39,  2747.70000,   933.20000
    701.86,  2760.20000,   938.10000
    702.32,  2757.80000,   937.70000
    702.78,  2761.10000,   924.20000
    703.24,  2760.70000,   920.60000
    703.71,  2774.10000,   907.60000
    704.17,  2786.40000,   911.20000
    704.63,  2787.80000,   903.80000
    705.09,  2777.80000,   902.10000
    705.56,  2805.40000,   899.10000
    706.02,  2804.40000,   907.40000
    706.48,  2779.80000,   908.20000
    706.94,  2777.60000,   907.40000
    707.40,  2753.40000,   906.90000
    707.87,  2762.50000,   893.50000
    708.33,  2777.80000,   889.70000
    708.79,  2762.80000,   895.30000
    709.25,  2722.30000,   903.00000
    709.72,  2734.00000,   899.70000
    710.18,  2746.80000,   900.80000
    710.64,  2748.20000,   891.60000
    711.10,  2747.00000,   875.10000
    711.56,  2761.90000,   869.40000
    712.03,  2779.00000,   877.90000
    712.49,  2807.60000,   884.90000
    712.95,  2827.70000,   879.70000
    713.41,  2796.30000,   882.60000
    713.87,  2798.90000,   866.60000
    714.33,  2799.40000,   863.00000
    714.80,  2792.10000,   872.80000
    715.26,  2748.20000,   884.80000
    715.72,  2743.70000,   880.90000
    716.18,  2730.30000,   883.20000
    716.64,  2752.90000,   879.60000
    717.11,  2765.00000,   867.20000
    717.57,  2768.10000,   859.00000
    718.03,  2734.00000,   854.70000
    718.49,  2739.60000,   848.10000
    718.95,  2780.20000,   851.90000
    719.41,  2786.90000,   863.50000
    719.87,  2763.90000,   869.00000
    720.34,  2748.30000,   878.50000
    720.80,  2735.00000,   875.90000
    721.26,  2729.00000,   866.80000
    721.72,  2779.20000,   853.50000
    722.18,  2768.30000,   854.10000
    722.64,  2741.60000,   855.80000
    723.10,  2741.30000,   856.30000
    723.57,  2750.70000,   858.60000
    724.03,  2765.80000,   853.50000
    724.49,  2773.40000,   849.50000
    724.95,  2730.20000,   854.30000
    725.41,  2782.60000,   858.90000
    725.87,  2830.30000,   855.90000
    726.33,  2852.90000,   850.80000
    726.80,  2868.70000,   835.20000
    727.26,  2822.90000,   831.50000
    727.72,  2743.50000,   825.10000
    728.18,  2752.20000,   836.50000
    728.64,  2750.00000,   837.20000
    729.10,  2760.70000,   831.10000
    729.56,  2776.70000,   828.20000
    730.02,  2796.30000,   831.40000
    730.48,  2790.50000,   838.60000
    730.94,  2781.40000,   845.00000
    731.41,  2770.50000,   840.10000
    731.87,  2747.40000,   832.60000
    732.33,  2724.40000,   830.10000
    732.79,  2755.70000,   827.00000
    733.25,  2749.70000,   837.90000
    733.71,  2769.20000,   833.70000
    734.17,  2783.40000,   831.10000
    734.63,  2761.40000,   821.60000
    735.09,  2742.10000,   819.80000
    735.55,  2742.10000,   816.50000
    736.01,  2728.20000,   825.10000
    736.47,  2740.30000,   821.50000
    736.94,  2752.40000,   816.90000
    737.40,  2755.40000,   819.20000
    737.86,  2757.00000,   822.20000
    738.32,  2761.70000,   826.60000
    738.78,  2772.70000,   839.90000
    739.24,  2765.40000,   835.40000
    739.70,  2763.80000,   829.80000
    740.16,  2784.70000,   827.80000
    740.62,  2800.90000,   813.00000
    741.08,  2817.10000,   810.60000
    741.54,  2803.40000,   812.50000
    742.00,  2784.00000,   810.10000
    742.46,  2751.10000,   814.70000
    742.92,  2731.00000,   811.30000
    743.38,  2730.70000,   807.10000
    743.84,  2735.70000,   810.60000
    744.30,  2744.00000,   817.30000
    744.76,  2763.00000,   813.70000
    745.22,  2755.80000,   819.70000
    745.68,  2735.10000,   820.20000
    746.14,  2730.20000,   813.60000
    746.60,  2734.60000,   813.90000
    747.06,  2753.10000,   809.40000
    747.52,  2744.80000,   806.50000
    747.98,  2759.10000,   810.10000
    748.44,  2761.70000,   816.70000
    748.90,  2764.00000,   809.90000
    749.36,  2761.40000,   814.80000
    749.82,  2780.90000,   805.20000
    750.28,  2780.20000,   814.70000
    750.74,  2803.60000,   810.00000
    751.20,  2800.40000,   820.20000
    751.66,  2784.50000,   818.40000
    752.12,  2756.70000,   823.00000
    752.58,  2761.10000,   823.50000
    753.04,  2773.70000,   827.90000
    753.50,  2799.50000,   826.80000
    753.96,  2778.80000,   828.00000
    754.42,  2743.50000,   824.10000
    754.88,  2723.30000,   816.80000
    755.34,  2721.00000,   812.10000
    755.80,  2754.10000,   801.10000
    756.26,  2771.30000,   807.80000
    756.72,  2775.80000,   810.70000
    757.18,  2772.60000,   823.20000
    757.64,  2766.00000,   821.40000
    758.10,  2739.70000,   818.00000
    758.56,  2726.40000,   800.50000
    759.02,  2734.00000,   798.80000
    759.48,  2736.10000,   806.50000
    759.94,  2757.30000,   809.00000
    760.40,  2759.30000,   805.10000
    760.86,  2758.90000,   802.50000
    761.32,  2754.50000,   801.50000
    761.78,  2788.10000,   796.70000
    762.24,  2761.10000,   809.50000
    762.70,  2766.80000,   810.90000
    763.15,  2751.60000,   808.80000
    763.61,  2760.30000,   806.30000
    764.07,  2766.80000,   822.90000
    764.53,  2777.10000,   825.40000
    764.99,  2779.40000,   835.10000
    765.45,  2795.80000,   834.30000
    765.91,  2784.80000,   819.20000
    766.37,  2772.50000,   806.00000
    766.83,  2747.50000,   805.30000
    767.29,  2746.00000,   806.40000
    767.75,  2744.10000,   820.60000
    768.21,  2757.10000,   820.80000
    768.66,  2767.10000,   818.80000
    769.12,  2773.30000,   820.90000
    769.58,  2753.10000,   816.00000
    770.04,  2748.20000,   805.40000
    770.50,  2716.00000,   811.30000
    770.96,  2708.40000,   801.40000
    771.42,  2733.30000,   798.90000
    771.88,  2752.50000,   796.70000
    772.34,  2756.90000,   794.70000
    772.80,  2752.20000,   788.60000
    773.25,  2726.40000,   798.90000
    773.71,  2720.90000,   801.10000
    774.17,  2702.00000,   809.70000
    774.63,  2718.80000,   816.60000
    775.09,  2729.40000,   823.50000
    775.55,  2723.60000,   824.10000
    776.01,  2701.80000,   820.50000
    776.47,  2705.30000,   817.20000
    776.92,  2683.00000,   820.60000
    777.38,  2710.70000,   829.50000
    777.84,  2718.80000,   834.50000
    778.30,  2719.70000,   823.10000
    778.76,  2717.70000,   805.60000
    779.22,  2742.10000,   796.80000
    779.68,  2744.60000,   799.90000
    780.13,  2748.30000,   808.90000
    780.59,  2729.30000,   808.90000
    781.05,  2713.80000,   804.40000
    781.51,  2715.90000,   806.50000
    781.97,  2733.90000,   808.30000
    782.43,  2742.90000,   808.60000
    782.88,  2760.00000,   808.20000
    783.34,  2749.90000,   804.20000
    783.80,  2755.10000,   799.00000
    784.26,  2771.60000,   796.80000
    784.72,  2760.30000,   798.40000
    785.18,  2741.80000,   799.90000
    785.63,  2724.80000,   810.80000
    786.09,  2732.80000,   818.80000
    786.55,  2764.10000,   825.30000
    787.01,  2790.90000,   820.40000
    787.47,  2765.80000,   817.50000
    787.92,  2739.10000,   807.10000
    788.38,  2710.60000,   812.60000
    788.84,  2706.10000,   805.30000
    789.30,  2717.20000,   813.00000
    789.76,  2729.60000,   815.30000
    790.21,  2730.90000,   814.00000
    790.67,  2726.30000,   807.90000
    791.13,  2724.40000,   810.30000
    791.59,  2705.40000,   804.30000
    792.05,  2703.70000,   798.50000
    792.50,  2715.80000,   795.10000
    792.96,  2744.50000,   793.90000
    793.42,  2721.80000,   801.40000
    793.88,  2731.30000,   807.80000
    794.33,  2702.70000,   815.00000
    794.79,  2708.40000,   807.50000
    795.25,  2711.80000,   798.60000
    795.71,  2734.90000,   789.30000
    796.17,  2733.70000,   796.70000
    796.62,  2745.50000,   795.90000
    797.08,  2714.10000,   798.30000
    797.54,  2714.90000,   803.10000
    798.00,  2702.00000,   805.40000
    798.45,  2710.90000,   809.70000
    798.91,  2715.80000,   816.80000
    799.37,  2724.80000,   814.10000
    799.83,  2719.90000,   809.30000
    800.28,  2706.90000,   805.80000
    800.74,  2705.40000,   797.80000
    801.20,  2721.60000,   796.20000
    801.66,  2706.80000,   789.40000
    802.11,  2716.70000,   794.30000
    802.57,  2730.60000,   799.30000
    803.03,  2707.00000,   798.50000
    803.48,  2693.60000,   790.60000
    803.94,  2747.90000,   782.50000
    804.40,  2762.30000,   780.30000
    804.86,  2789.80000,   777.50000
    805.31,  2777.40000,   783.60000
    805.77,  2735.40000,   784.00000
    806.23,  2679.40000,   785.50000
    806.69,  2706.30000,   784.90000
    807.14,  2699.70000,   798.20000
    807.60,  2724.10000,   791.20000
    808.06,  2727.30000,   785.50000
    808.51,  2729.30000,   780.00000
    808.97,  2700.00000,   776.60000
    809.43,  2697.30000,   778.70000
    809.88,  2696.60000,   786.10000
    810.34,  2691.00000,   783.10000
    810.80,  2718.60000,   772.50000
    811.26,  2729.90000,   776.50000
    811.71,  2715.10000,   771.20000
    812.17,  2722.70000,   775.90000
    812.63,  2721.10000,   774.80000
    813.08,  2690.90000,   783.50000
    813.54,  2708.10000,   774.80000
    814.00,  2714.60000,   782.00000
    814.45,  2711.80000,   773.30000
    814.91,  2729.40000,   764.00000
    815.37,  2716.10000,   755.90000
    815.82,  2704.10000,   754.60000
    816.28,  2697.30000,   756.50000
    816.74,  2699.20000,   764.00000
    817.19,  2671.30000,   764.40000
    817.65,  2689.00000,   767.80000
    818.11,  2704.90000,   778.90000
    818.56,  2711.80000,   776.70000
    819.02,  2701.60000,   773.90000
    819.48,  2713.00000,   757.60000
    819.93,  2681.00000,   742.20000
    820.39,  2703.90000,   748.30000
    820.84,  2734.80000,   752.20000
    821.30,  2744.20000,   758.80000
    821.76,  2747.30000,   754.50000
    822.21,  2756.80000,   754.50000
    822.67,  2733.70000,   756.30000
    823.13,  2692.20000,   761.20000
    823.58,  2724.40000,   747.80000
    824.04,  2741.60000,   747.30000
    824.49,  2746.60000,   738.90000
    824.95,  2754.50000,   748.50000
    825.41,  2757.40000,   749.90000
    825.86,  2728.30000,   755.30000
    826.32,  2755.80000,   751.70000
    826.78,  2738.30000,   743.60000
    827.23,  2709.60000,   740.20000
    827.69,  2690.40000,   738.00000
    828.14,  2692.20000,   729.50000
    828.60,  2716.20000,   729.90000
    829.06,  2734.50000,   727.60000
    829.51,  2725.90000,   721.90000
    829.97,  2729.90000,   720.20000
    830.42,  2729.50000,   720.50000
    830.88,  2711.80000,   720.60000
    831.34,  2712.00000,   725.60000
    831.79,  2725.30000,   732.20000
    832.25,  2726.60000,   722.80000
    832.70,  2729.40000,   713.70000
    833.16,  2741.00000,   710.60000
    833.61,  2733.00000,   707.80000
    834.07,  2727.20000,   715.80000
    834.53,  2722.50000,   721.60000
    834.98,  2708.60000,   716.90000
    835.44,  2688.00000,   724.20000
    835.89,  2697.10000,   729.90000
    836.35,  2711.10000,   731.70000
    836.80,  2742.40000,   722.80000
    837.26,  2733.70000,   714.20000
    837.71,  2710.20000,   702.00000
    838.17,  2695.90000,   701.40000
    838.63,  2692.20000,   697.70000
    839.08,  2695.60000,   698.10000
    839.54,  2719.50000,   699.40000
    839.99,  2707.40000,   703.70000
    840.45,  2714.70000,   701.00000
    840.90,  2726.80000,   703.80000
    841.36,  2739.90000,   694.00000
    841.81,  2736.90000,   689.00000
    842.27,  2726.00000,   694.00000
    842.72,  2696.40000,   698.20000
    843.18,  2701.20000,   699.50000
    843.63,  2687.00000,   700.90000
    844.09,  2686.70000,   699.30000
    844.55,  2687.40000,   687.90000
    845.00,  2680.50000,   689.10000
    845.46,  2690.90000,   691.50000
    845.91,  2700.30000,   698.00000
    846.37,  2717.00000,   693.90000
    846.82,  2739.00000,   689.20000
    847.28,  2752.50000,   680.00000
    847.73,  2696.40000,   687.30000
    848.19,  2724.00000,   698.10000
    848.64,  2727.50000,   702.00000
    849.10,  2750.90000,   698.70000
    849.55,  2762.90000,   690.00000
    850.01,  2749.00000,   692.80000
    850.46,  2689.30000,   695.10000
    850.92,  2712.40000,   696.90000
    851.37,  2722.60000,   685.60000
    851.83,  2722.40000,   687.00000
    852.28,  2723.00000,   691.70000
    852.73,  2697.60000,   701.20000
    853.19,  2673.70000,   692.20000
    853.64,  2684.60000,   684.10000
    854.10,  2692.50000,   677.00000
    854.55,  2699.00000,   668.80000
    855.01,  2706.10000,   667.80000
    855.46,  2682.60000,   670.40000
    855.92,  2675.60000,   668.60000
    856.37,  2683.10000,   670.10000
    856.83,  2670.20000,   682.30000
    857.28,  2691.30000,   688.10000
    857.74,  2689.20000,   695.10000
    858.19,  2689.30000,   695.30000
    858.64,  2708.80000,   697.50000
    859.10,  2700.60000,   692.80000
    859.55,  2668.90000,   693.00000
    860.01,  2721.30000,   693.30000
    860.46,  2745.00000,   686.20000
    860.92,  2745.30000,   679.30000
    861.37,  2749.10000,   677.70000
    861.83,  2736.90000,   686.00000
    862.28,  2704.80000,   693.90000
    862.73,  2719.50000,   702.30000
    863.19,  2717.20000,   686.90000
    863.64,  2693.40000,   686.90000
    864.10,  2689.30000,   678.60000
    864.55,  2706.80000,   680.70000
    865.01,  2704.90000,   682.20000
    865.46,  2716.60000,   690.30000
    865.91,  2704.70000,   682.90000
    866.37,  2692.40000,   685.90000
    866.82,  2689.60000,   681.10000
    867.28,  2688.90000,   666.50000
    867.73,  2680.10000,   659.80000
    868.18,  2711.00000,   662.40000
    868.64,  2709.90000,   668.90000
    869.09,  2730.90000,   675.80000
    869.55,  2742.20000,   689.00000
    870.00,  2732.30000,   683.20000
    870.45,  2716.80000,   679.70000
    870.91,  2692.80000,   673.90000
    871.36,  2668.30000,   670.80000
    871.81,  2688.50000,   669.00000
    872.27,  2713.70000,   682.30000
    872.72,  2717.70000,   681.80000
    873.18,  2724.40000,   673.30000
    873.63,  2693.80000,   672.60000
    874.08,  2682.00000,   679.60000
    874.54,  2695.40000,   683.40000
    874.99,  2692.80000,   697.80000
    875.44,  2671.80000,   700.90000
    875.90,  2667.50000,   689.30000
    876.35,  2666.10000,   687.20000
    876.81,  2704.50000,   682.10000
    877.26,  2733.60000,   683.70000
    877.71,  2713.30000,   692.00000
    878.17,  2683.70000,   694.90000
    878.62,  2698.70000,   688.00000
    879.07,  2718.80000,   681.60000
    879.53,  2745.50000,   677.20000
    879.98,  2739.60000,   680.20000
    880.43,  2717.00000,   683.10000
    880.89,  2703.40000,   683.20000
    881.34,  2702.70000,   680.60000
    881.79,  2712.10000,   681.70000
    882.25,  2709.90000,   674.50000
    882.70,  2690.10000,   669.20000
    883.15,  2683.40000,   665.30000
    883.61,  2695.90000,   670.10000
    884.06,  2677.90000,   681.60000
    884.51,  2695.00000,   698.40000
    884.97,  2687.00000,   693.40000
    885.42,  2691.20000,   699.30000
    885.87,  2694.10000,   694.10000
    886.32,  2700.60000,   695.60000
    886.78,  2672.90000,   702.70000
    887.23,  2683.30000,   709.00000
    887.68,  2676.20000,   706.70000
    888.14,  2687.80000,   702.30000
    888.59,  2686.20000,   689.50000
    889.04,  2676.30000,   676.80000
    889.50,  2646.80000,   673.80000
    889.95,  2669.40000,   673.30000
    890.40,  2682.10000,   695.50000
    890.85,  2696.50000,   702.80000
    891.31,  2684.90000,   710.40000
    891.76,  2686.20000,   708.20000
    892.21,  2666.70000,   699.60000
    892.67,  2680.50000,   699.10000
    893.12,  2675.50000,   704.20000
    893.57,  2687.40000,   708.00000
    894.02,  2690.40000,   710.10000
    894.48,  2709.70000,   709.10000
    894.93,  2712.40000,   695.90000
    895.38,  2712.90000,   696.80000
    895.83,  2690.70000,   701.20000
    896.29,  2683.20000,   716.80000
    896.74,  2678.00000,   724.10000
    897.19,  2693.10000,   724.20000
    897.64,  2717.20000,   701.00000
    898.10,  2720.60000,   696.80000
    898.55,  2699.70000,   700.40000
    899.00,  2685.20000,   705.40000
    899.45,  2647.30000,   711.50000
    899.91,  2634.30000,   720.30000
    900.36,  2625.60000,   720.30000
    900.81,  2658.40000,   727.90000
    901.26,  2682.00000,   724.80000
    901.72,  2708.90000,   718.80000
    902.17,  2695.60000,   713.20000
    902.62,  2698.90000,   714.40000
    903.07,  2666.20000,   718.80000
    903.52,  2675.00000,   724.10000
    903.98,  2680.80000,   726.30000
    904.43,  2692.90000,   731.50000
    904.88,  2675.40000,   731.20000
    905.33,  2677.60000,   736.60000
    905.79,  2665.30000,   731.90000
    906.24,  2663.90000,   733.90000
    906.69,  2687.10000,   729.70000
    907.14,  2688.50000,   737.50000
    907.59,  2657.00000,   739.40000
    908.05,  2638.90000,   746.20000
    908.50,  2635.50000,   733.80000
    908.95,  2640.60000,   742.00000
    909.40,  2660.10000,   750.40000
    909.85,  2659.90000,   750.00000
    910.31,  2665.10000,   748.90000
    910.76,  2655.10000,   742.20000
    911.21,  2640.20000,   738.00000
    911.66,  2629.80000,   747.00000
    912.11,  2617.80000,   765.90000
    912.56,  2645.10000,   768.00000
    913.02,  2670.70000,   778.70000
    913.47,  2679.10000,   779.70000
    913.92,  2667.80000,   796.00000
    914.37,  2655.00000,   797.90000
    914.82,  2650.90000,   815.10000
    915.27,  2674.90000,   814.20000
    915.73,  2692.20000,   824.60000
    916.18,  2680.90000,   839.30000
    916.63,  2662.50000,   851.20000
    917.08,  2617.60000,   860.40000
    917.53,  2653.70000,   872.50000
    917.98,  2548.20000,   873.10000
    918.44,  2906.40000,   872.50000
    918.89,  3091.70000,   887.30000
    919.34,  3146.30000,   899.60000
    919.79,  3043.50000,   915.70000
    920.24,  2877.00000,   939.00000
    920.69,  2548.30000,   972.60000
    921.14,  2684.60000,  1000.80000
    921.59,  2680.50000,  1037.70000
    922.05,  2674.20000,  1092.10000
    922.50,  2668.80000,  1145.50000
    922.95,  2686.50000,  1211.80000
    923.40,  2703.30000,  1289.00000
    923.85,  2715.50000,  1377.90000
    924.30,  2730.00000,  1484.90000
    924.75,  2716.10000,  1638.30000
    925.20,  2690.60000,  1816.40000
    925.66,  2665.10000,  2013.00000
    926.11,  2658.10000,  2231.30000
    926.56,  2659.90000,  2465.80000
    927.01,  2681.10000,  2721.30000
    927.46,  2680.70000,  3007.10000
    927.91,  2655.50000,  3311.10000
    928.36,  2625.60000,  3654.10000
    928.81,  2634.90000,  4002.30000
    929.26,  2649.90000,  4339.30000
    929.71,  2679.80000,  4657.50000
    930.16,  2709.60000,  4938.50000
    930.62,  2683.80000,  5193.80000
    931.07,  2668.50000,  5449.60000
    931.52,  2666.90000,  5658.10000
    931.97,  2673.80000,  5845.20000
    932.42,  2676.60000,  6009.80000
    932.87,  2683.60000,  6147.70000
    933.32,  2662.60000,  6258.50000
    933.77,  2682.30000,  6367.30000
    934.22,  2686.60000,  6447.80000
    934.67,  2710.50000,  6516.20000
    935.12,  2707.30000,  6568.00000
    935.57,  2681.40000,  6592.00000
    936.02,  2657.20000,  6585.90000
    936.47,  2673.10000,  6623.10000
    936.93,  2653.00000,  6675.00000
    937.38,  2651.00000,  6756.60000
    937.83,  2661.80000,  6859.10000
    938.28,  2652.50000,  7014.60000
    938.73,  2648.70000,  7221.00000
    939.18,  2664.50000,  7481.10000
    939.63,  2660.60000,  7712.10000
    940.08,  2671.00000,  7890.80000
    940.53,  2693.10000,  8036.50000
    940.98,  2694.30000,  8171.20000
    941.43,  2677.40000,  8268.70000
    941.88,  2668.20000,  8382.50000
    942.33,  2667.30000,  8463.00000
    942.78,  2666.90000,  8507.90000
    943.23,  2673.30000,  8585.10000
    943.68,  2674.40000,  8609.20000
    944.13,  2683.60000,  8536.60000
    944.58,  2695.70000,  8473.60000
    945.03,  2694.80000,  8436.90000
    945.48,  2670.00000,  8458.10000
    945.93,  2665.20000,  8512.20000
    946.38,  2663.40000,  8572.00000
    946.83,  2693.10000,  8583.10000
    947.28,  2703.10000,  8620.60000
    947.73,  2701.40000,  8678.00000
    948.18,  2674.30000,  8709.20000
    948.63,  2658.80000,  8695.00000
    949.08,  2648.90000,  8691.20000
    949.53,  2638.50000,  8631.80000
    949.98,  2626.60000,  8615.40000
    950.43,  2639.30000,  8581.80000
    950.88,  2649.30000,  8459.00000
    951.33,  2666.00000,  8289.20000
    951.78,  2691.50000,  8132.70000
    952.23,  2688.60000,  7976.70000
    952.68,  2670.40000,  7899.60000
    953.13,  2666.60000,  7874.90000
    953.58,  2671.40000,  7837.10000
    954.03,  2663.60000,  7800.80000
    954.48,  2658.30000,  7793.40000
    954.93,  2655.10000,  7784.80000
    955.38,  2643.20000,  7700.90000
    955.83,  2650.30000,  7528.00000
    956.28,  2650.80000,  7299.60000
    956.73,  2662.00000,  7051.90000
    957.18,  2661.30000,  6838.80000
    957.62,  2658.40000,  6661.80000
    958.07,  2664.20000,  6474.90000
    958.52,  2661.70000,  6325.90000
    958.97,  2646.80000,  6230.70000
    959.42,  2655.80000,  6093.30000
    959.87,  2646.90000,  5952.80000
    960.32,  2650.00000,  5767.60000
    960.77,  2673.90000,  5542.70000
    961.22,  2711.70000,  5362.50000
    961.67,  2724.90000,  5201.00000
    962.12,  2702.90000,  5049.10000
    962.57,  2675.20000,  4923.60000
    963.02,  2671.90000,  4811.40000
    963.47,  2663.30000,  4700.10000
    963.92,  2679.20000,  4621.20000
    964.36,  2680.20000,  4555.80000
    964.81,  2671.90000,  4499.50000
    965.26,  2678.50000,  4428.10000
    965.71,  2687.10000,  4368.30000
    966.16,  2681.60000,  4292.20000
    966.61,  2659.20000,  4205.20000
    967.06,  2641.80000,  4102.50000
    967.51,  2654.70000,  3965.90000
    967.96,  2667.60000,  3822.20000
    968.41,  2681.70000,  3688.70000
    968.85,  2680.30000,  3550.70000
    969.30,  2671.10000,  3399.40000
    969.75,  2683.30000,  3256.70000
    970.20,  2687.00000,  3112.00000
    970.65,  2694.30000,  2973.60000
    971.10,  2683.00000,  2862.80000
    971.55,  2676.70000,  2753.50000
    972.00,  2662.20000,  2650.80000
    972.44,  2651.90000,  2577.20000
    972.89,  2667.90000,  2512.50000
    973.34,  2681.80000,  2445.00000
    973.79,  2677.30000,  2402.10000
    974.24,  2693.00000,  2352.30000
    974.69,  2670.00000,  2324.50000
    975.14,  2641.40000,  2321.20000
    975.59,  2640.70000,  2333.50000
    976.03,  2627.90000,  2340.10000
    976.48,  2621.70000,  2341.00000
    976.93,  2626.30000,  2314.10000
    977.38,  2628.30000,  2286.60000
    977.83,  2625.00000,  2265.40000
    978.28,  2636.50000,  2264.20000
    978.72,  2652.40000,  2267.00000
    979.17,  2672.60000,  2266.70000
    979.62,  2680.60000,  2267.90000
    980.07,  2693.00000,  2252.60000
    980.52,  2677.70000,  2241.10000
    980.97,  2656.40000,  2238.70000
    981.41,  2613.10000,  2246.10000
    981.86,  2587.20000,  2263.00000
    982.31,  2596.00000,  2267.10000
    982.76,  2620.40000,  2234.90000
    983.21,  2653.30000,  2181.30000
    983.66,  2662.70000,  2095.10000
    984.10,  2634.40000,  2000.40000
    984.55,  2613.30000,  1913.30000
    985.00,  2612.80000,  1815.90000
    985.45,  2595.70000,  1745.80000
    985.90,  2613.90000,  1691.20000
    986.34,  2625.80000,  1647.60000
    986.79,  2620.10000,  1601.10000
    987.24,  2621.90000,  1569.60000
    987.69,  2608.60000,  1521.50000
    988.14,  2605.50000,  1481.50000
    988.58,  2621.90000,  1447.70000
    989.03,  2636.20000,  1404.50000
    989.48,  2642.90000,  1361.90000
    989.93,  2640.30000,  1336.10000
    990.38,  2608.40000,  1306.60000
    990.82,  2616.50000,  1275.30000
    991.27,  2630.10000,  1255.60000
    991.72,  2658.80000,  1219.40000
    992.17,  2641.40000,  1196.90000
    992.61,  2648.90000,  1181.40000
    993.06,  2620.00000,  1166.70000
    993.51,  2647.50000,  1153.00000
    993.96,  2650.90000,  1137.90000
    994.41,  2644.50000,  1113.50000
    994.85,  2620.80000,  1094.00000
    995.30,  2636.00000,  1077.50000
    995.75,  2635.30000,  1054.30000
    996.20,  2677.10000,  1042.70000
    996.64,  2663.20000,  1028.30000
    997.09,  2628.10000,  1011.50000
    997.54,  2622.40000,   989.90000
    997.99,  2607.40000,   981.40000
    998.43,  2611.40000,   969.50000
    998.88,  2615.50000,   967.80000
    999.33,  2625.50000,   968.60000
    999.77,  2643.80000,   966.90000
   1000.22,  2662.00000,   961.80000
   1000.67,  2670.80000,   957.80000
   1001.12,  2674.00000,   955.40000
   1001.56,  2640.20000,   952.50000
   1002.01,  2622.00000,   959.40000
   1002.46,  2628.20000,   958.90000
   1002.91,  2603.60000,   965.40000
   1003.35,  2623.20000,   961.60000
   1003.80,  2614.40000,   967.30000
   1004.25,  2619.70000,   957.40000
   1004.69,  2620.50000,   955.90000
   1005.14,  2615.50000,   944.60000
   1005.59,  2614.90000,   942.00000
   1006.04,  2646.10000,   938.40000
   1006.48,  2654.60000,   942.50000
   1006.93,  2677.80000,   936.40000
   1007.38,  2667.70000,   937.10000
   1007.82,  2629.50000,   935.10000
   1008.27,  2612.70000,   936.10000
   1008.72,  2601.20000,   932.90000
   1009.16,  2602.70000,   932.50000
   1009.61,  2607.00000,   932.20000
   1010.06,  2609.00000,   933.60000
   1010.50,  2638.10000,   927.40000
   1010.95,  2663.70000,   929.90000
   1011.40,  2669.60000,   940.10000
   1011.85,  2651.90000,   940.30000
   1012.29,  2642.30000,   929.90000
   1012.74,  2609.10000,   929.10000
   1013.19,  2606.30000,   922.30000
   1013.63,  2640.70000,   929.40000
   1014.08,  2667.20000,   948.30000
   1014.53,  2665.10000,   947.10000
   1014.97,  2656.80000,   928.10000
   1015.42,  2629.70000,   920.90000
   1015.86,  2598.00000,   917.70000
   1016.31,  2619.00000,   915.00000
   1016.76,  2648.80000,   926.40000
   1017.20,  2633.50000,   932.30000
   1017.65,  2605.90000,   936.10000
   1018.10,  2603.50000,   940.30000
   1018.54,  2584.40000,   941.80000
   1018.99,  2617.20000,   925.70000
   1019.44,  2626.60000,   927.80000
   1019.88,  2615.70000,   927.50000
   1020.33,  2607.20000,   936.80000
   1020.78,  2614.00000,   948.10000
   1021.22,  2621.00000,   949.90000
   1021.67,  2632.20000,   943.20000
   1022.11,  2625.10000,   942.70000
   1022.56,  2619.80000,   945.40000
   1023.01,  2608.70000,   937.20000
   1023.45,  2590.10000,   938.30000
   1023.90,  2595.10000,   928.20000
   1024.34,  2579.30000,   931.20000
   1024.79,  2592.10000,   935.30000
   1025.24,  2603.30000,   952.40000
   1025.68,  2600.50000,   957.00000
   1026.13,  2595.70000,   963.30000
   1026.58,  2602.90000,   959.20000
   1027.02,  2620.70000,   955.10000
   1027.47,  2630.80000,   953.00000
   1027.91,  2634.60000,   941.40000
   1028.36,  2611.20000,   936.10000
   1028.80,  2600.20000,   934.70000
   1029.25,  2582.00000,   931.00000
   1029.70,  2598.60000,   928.50000
   1030.14,  2590.40000,   942.10000
   1030.59,  2584.50000,   949.90000
   1031.03,  2579.00000,   961.10000
   1031.48,  2589.80000,   970.60000
   1031.93,  2616.10000,   959.00000
   1032.37,  2654.90000,   950.50000
   1032.82,  2659.00000,   947.90000
   1033.26,  2659.20000,   959.00000
   1033.71,  2636.00000,   958.80000
   1034.15,  2618.00000,   968.10000
   1034.60,  2612.40000,   965.70000
   1035.05,  2621.90000,   973.40000
   1035.49,  2617.70000,   970.50000
   1035.94,  2621.80000,   979.70000
   1036.38,  2594.30000,   972.30000
   1036.83,  2569.80000,   971.70000
   1037.27,  2554.30000,   972.50000
   1037.72,  2544.20000,   982.70000
   1038.16,  2647.70000,   984.90000
   1038.61,  2724.20000,   985.70000
   1039.05,  2743.00000,   985.20000
   1039.50,  2735.30000,   984.20000
   1039.95,  2675.60000,   990.30000
   1040.39,  2601.10000,   995.10000
   1040.84,  2603.60000,  1009.70000
   1041.28,  2605.10000,   997.60000
   1041.73,  2600.40000,  1000.30000
   1042.17,  2615.30000,   993.10000
   1042.62,  2615.90000,   991.20000
   1043.06,  2625.40000,   996.90000
   1043.51,  2596.00000,  1019.10000
   1043.95,  2607.60000,  1022.70000
   1044.40,  2601.60000,  1028.40000
   1044.84,  2589.70000,  1019.30000
   1045.29,  2584.10000,  1012.00000
   1045.73,  2587.40000,  1016.90000
   1046.18,  2571.90000,  1016.90000
   1046.62,  2569.80000,  1022.70000
   1047.07,  2566.40000,  1019.50000
   1047.51,  2545.80000,  1017.50000
   1047.96,  2578.40000,  1017.40000
   1048.40,  2620.40000,  1028.80000
   1048.85,  2642.40000,  1027.00000
   1049.29,  2632.30000,  1035.40000
   1049.74,  2593.30000,  1039.60000
   1050.18,  2555.90000,  1043.50000
   1050.63,  2560.00000,  1049.00000
   1051.07,  2574.70000,  1055.60000
   1051.52,  2597.10000,  1054.60000
   1051.96,  2588.10000,  1052.80000
   1052.41,  2568.60000,  1058.40000
   1052.85,  2574.10000,  1056.90000
   1053.30,  2559.30000,  1068.50000
   1053.74,  2561.50000,  1068.30000
   1054.18,  2560.20000,  1073.50000
   1054.63,  2540.10000,  1071.80000
   1055.07,  2534.90000,  1071.60000
   1055.52,  2540.20000,  1078.50000
   1055.96,  2530.40000,  1087.90000
   1056.41,  2532.70000,  1086.20000
   1056.85,  2523.60000,  1097.90000
   1057.30,  2525.00000,  1105.70000
   1057.74,  2523.30000,  1106.40000
   1058.18,  2515.50000,  1106.50000
   1058.63,  2488.40000,  1099.50000
   1059.07,  2487.50000,  1092.70000
   1059.52,  2499.70000,  1088.10000
   1059.96,  2511.10000,  1089.10000
   1060.41,  2514.10000,  1097.00000
   1060.85,  2520.60000,  1104.20000
   1061.30,  2502.00000,  1121.30000
   1061.74,  2493.30000,  1133.30000
   1062.18,  2486.80000,  1133.90000
   1062.63,  2468.10000,  1132.90000
   1063.07,  2461.60000,  1140.30000
   1063.52,  2462.00000,  1153.00000
   1063.96,  2477.90000,  1161.40000
   1064.40,  2485.80000,  1163.00000
   1064.85,  2486.40000,  1159.00000
   1065.29,  2472.00000,  1156.80000
   1065.74,  2457.60000,  1158.20000
   1066.18,  2427.50000,  1163.10000
