2D Measure spectrum data V5.74

<< MEASURE 1 >>
Data count = 2048
Exposure time = 30000 msec
Average = 10
Inspected time = 2020/10/23 14:56

Wave-dcm-1,Dark spec.  ,Spectrum
    108.17,  2252.10000,   656.20000
    108.66,  2260.70000,   653.40000
    109.15,  2276.70000,   641.00000
    109.65,  2308.90000,   617.40000
    110.14,  2315.70000,   614.00000
    110.63,  2324.40000,   601.50000
    111.13,  2335.20000,   595.30000
    111.62,  2324.40000,   591.80000
    112.11,  2342.00000,   586.40000
    112.60,  2366.40000,   572.20000
    113.10,  2350.40000,   569.50000
    113.59,  2367.80000,   573.30000
    114.08,  2386.60000,   573.00000
    114.58,  2376.30000,   575.00000
    115.07,  2423.10000,   569.60000
    115.56,  2437.80000,   566.70000
    116.06,  2427.90000,   562.20000
    116.55,  2434.80000,   568.30000
    117.04,  2425.20000,   571.10000
    117.53,  2400.40000,   573.40000
    118.03,  2432.60000,   565.60000
    118.52,  2430.20000,   575.70000
    119.01,  2425.50000,   576.70000
    119.51,  2519.60000,   582.40000
    120.00,  2610.60000,   591.80000
    120.49,  2643.60000,   605.60000
    120.98,  2642.60000,   615.30000
    121.48,  2552.80000,   628.20000
    121.97,  2445.90000,   639.80000
    122.46,  2441.10000,   647.90000
    122.95,  2469.00000,   661.20000
    123.45,  2502.80000,   678.70000
    123.94,  2514.40000,   680.10000
    124.43,  2531.20000,   691.80000
    124.92,  2560.80000,   705.90000
    125.42,  2564.80000,   721.20000
    125.91,  2581.00000,   731.80000
    126.40,  2571.30000,   744.90000
    126.89,  2541.80000,   743.50000
    127.39,  2523.20000,   759.40000
    127.88,  2524.10000,   762.20000
    128.37,  2530.70000,   770.30000
    128.86,  2557.90000,   782.60000
    129.35,  2558.00000,   796.00000
    129.85,  2561.80000,   811.40000
    130.34,  2545.70000,   828.90000
    130.83,  2549.40000,   833.60000
    131.32,  2555.40000,   839.90000
    131.81,  2560.80000,   846.90000
    132.31,  2560.80000,   854.00000
    132.80,  2566.50000,   857.10000
    133.29,  2553.00000,   858.30000
    133.78,  2562.20000,   863.70000
    134.27,  2573.80000,   877.80000
    134.77,  2583.50000,   878.30000
    135.26,  2609.30000,   880.60000
    135.75,  2607.70000,   879.60000
    136.24,  2618.10000,   891.20000
    136.73,  2597.60000,   904.40000
    137.23,  2602.40000,   934.40000
    137.72,  2598.80000,   935.60000
    138.21,  2605.80000,   937.30000
    138.70,  2597.30000,   937.50000
    139.19,  2636.70000,   939.90000
    139.68,  2624.00000,   939.20000
    140.18,  2624.00000,   952.90000
    140.67,  2633.70000,   945.60000
    141.16,  2636.20000,   947.80000
    141.65,  2621.90000,   953.20000
    142.14,  2623.10000,   954.40000
    142.63,  2638.70000,   959.50000
    143.13,  2642.60000,   965.70000
    143.62,  2676.60000,   973.50000
    144.11,  2679.00000,   986.10000
    144.60,  2639.80000,  1004.00000
    145.09,  2623.80000,  1016.50000
    145.58,  2682.10000,  1029.40000
    146.07,  2701.70000,  1034.60000
    146.56,  2708.20000,  1043.40000
    147.06,  2695.50000,  1047.80000
    147.55,  2663.00000,  1047.30000
    148.04,  2617.20000,  1052.20000
    148.53,  2652.60000,  1060.20000
    149.02,  2630.60000,  1073.40000
    149.51,  2702.00000,  1086.50000
    150.00,  2755.70000,  1100.60000
    150.49,  2781.60000,  1103.80000
    150.99,  2776.30000,  1117.00000
    151.48,  2756.50000,  1122.90000
    151.97,  2682.10000,  1137.00000
    152.46,  2687.00000,  1160.50000
    152.95,  2669.40000,  1190.50000
    153.44,  2673.30000,  1216.10000
    153.93,  2687.60000,  1244.20000
    154.42,  2705.60000,  1251.30000
    154.91,  2686.10000,  1251.80000
    155.40,  2665.80000,  1255.10000
    155.89,  2654.70000,  1253.30000
    156.39,  2675.50000,  1262.90000
    156.88,  2653.30000,  1270.90000
    157.37,  2664.20000,  1278.50000
    157.86,  2670.80000,  1292.10000
    158.35,  2680.70000,  1307.50000
    158.84,  2701.10000,  1313.50000
    159.33,  2742.30000,  1331.70000
    159.82,  2747.10000,  1344.00000
    160.31,  2756.30000,  1365.50000
    160.80,  2783.60000,  1408.30000
    161.29,  2739.10000,  1435.30000
    161.78,  2706.00000,  1456.50000
    162.27,  2681.20000,  1459.90000
    162.76,  2682.80000,  1458.00000
    163.25,  2699.20000,  1462.10000
    163.74,  2730.20000,  1475.20000
    164.23,  2731.10000,  1478.10000
    164.72,  2749.80000,  1504.30000
    165.21,  2721.00000,  1516.70000
    165.70,  2703.20000,  1538.10000
    166.20,  2742.10000,  1550.80000
    166.69,  2760.20000,  1575.20000
    167.18,  2770.80000,  1593.20000
    167.67,  2773.90000,  1615.50000
    168.16,  2742.90000,  1633.10000
    168.65,  2695.20000,  1638.60000
    169.14,  2724.70000,  1636.30000
    169.63,  2720.50000,  1641.10000
    170.12,  2718.60000,  1635.00000
    170.61,  2718.30000,  1617.20000
    171.10,  2774.30000,  1600.20000
    171.59,  2770.90000,  1576.90000
    172.08,  2779.50000,  1569.90000
    172.57,  2772.90000,  1566.60000
    173.06,  2772.30000,  1569.20000
    173.55,  2753.20000,  1583.20000
    174.04,  2731.80000,  1608.10000
    174.53,  2724.50000,  1620.40000
    175.02,  2722.80000,  1621.30000
    175.50,  2754.80000,  1620.60000
    175.99,  2794.50000,  1602.80000
    176.48,  2823.20000,  1598.40000
    176.97,  2793.90000,  1600.20000
    177.46,  2792.60000,  1601.90000
    177.95,  2761.50000,  1592.80000
    178.44,  2739.40000,  1593.20000
    178.93,  2719.40000,  1584.00000
    179.42,  2739.70000,  1572.30000
    179.91,  2752.80000,  1562.90000
    180.40,  2765.70000,  1554.70000
    180.89,  2775.80000,  1554.50000
    181.38,  2764.70000,  1563.30000
    181.87,  2756.70000,  1575.30000
    182.36,  2752.70000,  1587.30000
    182.85,  2724.70000,  1590.80000
    183.34,  2736.40000,  1592.20000
    183.83,  2749.70000,  1595.10000
    184.32,  2751.10000,  1591.20000
    184.81,  2802.90000,  1580.60000
    185.29,  2799.80000,  1581.80000
    185.78,  2764.60000,  1576.40000
    186.27,  2766.40000,  1574.90000
    186.76,  2751.90000,  1575.00000
    187.25,  2730.10000,  1563.80000
    187.74,  2813.20000,  1544.90000
    188.23,  2838.40000,  1540.70000
    188.72,  2858.90000,  1543.50000
    189.21,  2842.30000,  1543.60000
    189.70,  2807.60000,  1551.40000
    190.19,  2775.80000,  1550.60000
    190.67,  2769.30000,  1538.20000
    191.16,  2768.30000,  1542.40000
    191.65,  2774.50000,  1556.70000
    192.14,  2750.40000,  1572.60000
    192.63,  2770.10000,  1586.50000
    193.12,  2779.50000,  1585.30000
    193.61,  2769.60000,  1561.80000
    194.10,  2785.60000,  1557.20000
    194.59,  2782.10000,  1556.90000
    195.07,  2773.20000,  1561.10000
    195.56,  2783.60000,  1562.20000
    196.05,  2766.30000,  1548.90000
    196.54,  2759.30000,  1542.10000
    197.03,  2779.10000,  1548.10000
    197.52,  2817.40000,  1555.20000
    198.01,  2830.40000,  1549.70000
    198.49,  2825.50000,  1552.60000
    198.98,  2817.80000,  1542.10000
    199.47,  2776.30000,  1540.90000
    199.96,  2764.30000,  1548.70000
    200.45,  2777.80000,  1543.90000
    200.94,  2763.70000,  1532.80000
    201.43,  2767.20000,  1526.90000
    201.91,  2768.00000,  1510.10000
    202.40,  2766.00000,  1489.20000
    202.89,  2767.40000,  1488.90000
    203.38,  2779.50000,  1481.70000
    203.87,  2773.00000,  1486.60000
    204.36,  2762.70000,  1477.50000
    204.84,  2754.20000,  1473.70000
    205.33,  2771.30000,  1471.60000
    205.82,  2785.20000,  1482.30000
    206.31,  2779.80000,  1486.40000
    206.80,  2780.50000,  1497.50000
    207.28,  2791.40000,  1499.20000
    207.77,  2799.20000,  1502.60000
    208.26,  2809.30000,  1508.80000
    208.75,  2814.60000,  1497.80000
    209.24,  2794.20000,  1484.40000
    209.72,  2804.60000,  1480.80000
    210.21,  2823.10000,  1477.70000
    210.70,  2807.40000,  1486.30000
    211.19,  2823.80000,  1492.10000
    211.68,  2827.30000,  1492.40000
    212.16,  2828.40000,  1487.40000
    212.65,  2828.00000,  1496.90000
    213.14,  2813.00000,  1501.20000
    213.63,  2803.20000,  1509.30000
    214.12,  2793.10000,  1498.80000
    214.60,  2802.40000,  1505.90000
    215.09,  2821.90000,  1496.70000
    215.58,  2814.80000,  1509.00000
    216.07,  2808.00000,  1517.10000
    216.55,  2814.00000,  1516.00000
    217.04,  2754.60000,  1512.20000
    217.53,  2753.60000,  1514.70000
    218.02,  2756.40000,  1513.80000
    218.50,  2766.10000,  1525.70000
    218.99,  2784.00000,  1542.80000
    219.48,  2807.70000,  1548.20000
    219.97,  2772.30000,  1572.20000
    220.45,  2778.40000,  1585.30000
    220.94,  2771.40000,  1602.20000
    221.43,  2789.10000,  1614.50000
    221.92,  2815.30000,  1622.90000
    222.40,  2820.50000,  1635.50000
    222.89,  2809.20000,  1655.50000
    223.38,  2823.60000,  1667.90000
    223.86,  2835.90000,  1689.60000
    224.35,  2855.40000,  1720.10000
    224.84,  2870.00000,  1739.60000
    225.33,  2857.40000,  1774.00000
    225.81,  2823.10000,  1792.70000
    226.30,  2810.20000,  1802.50000
    226.79,  2804.40000,  1817.50000
    227.27,  2791.40000,  1840.20000
    227.76,  2793.80000,  1843.70000
    228.25,  2817.80000,  1857.60000
    228.74,  2827.00000,  1861.00000
    229.22,  2853.70000,  1860.00000
    229.71,  2849.80000,  1852.50000
    230.20,  2832.20000,  1837.90000
    230.68,  2819.80000,  1818.50000
    231.17,  2808.40000,  1801.40000
    231.66,  2783.30000,  1783.30000
    232.14,  2779.70000,  1772.70000
    232.63,  2766.60000,  1756.40000
    233.12,  2780.80000,  1741.30000
    233.60,  2802.60000,  1713.40000
    234.09,  2784.00000,  1680.40000
    234.58,  2775.50000,  1648.50000
    235.06,  2780.50000,  1621.90000
    235.55,  2777.20000,  1601.80000
    236.04,  2769.50000,  1583.60000
    236.52,  2791.10000,  1547.30000
    237.01,  2775.40000,  1519.80000
    237.50,  2808.60000,  1500.90000
    237.98,  2802.60000,  1478.70000
    238.47,  2851.90000,  1477.70000
    238.96,  2858.80000,  1475.90000
    239.44,  2851.20000,  1462.10000
    239.93,  2848.10000,  1459.60000
    240.41,  2803.90000,  1457.00000
    240.90,  2748.00000,  1425.20000
    241.39,  2775.80000,  1405.70000
    241.87,  2828.00000,  1383.70000
    242.36,  2845.00000,  1372.20000
    242.85,  2885.90000,  1379.10000
    243.33,  2866.00000,  1385.20000
    243.82,  2841.80000,  1371.50000
    244.30,  2810.60000,  1367.70000
    244.79,  2818.40000,  1361.70000
    245.28,  2796.00000,  1356.40000
    245.76,  2791.60000,  1357.20000
    246.25,  2780.00000,  1350.70000
    246.74,  2804.40000,  1343.80000
    247.22,  2833.20000,  1347.60000
    247.71,  2830.40000,  1350.90000
    248.19,  2818.70000,  1349.40000
    248.68,  2814.30000,  1359.50000
    249.16,  2780.00000,  1361.80000
    249.65,  2812.60000,  1364.50000
    250.14,  2826.80000,  1363.70000
    250.62,  2798.60000,  1360.70000
    251.11,  2773.70000,  1355.50000
    251.59,  2757.90000,  1351.30000
    252.08,  2741.80000,  1349.30000
    252.57,  2762.40000,  1343.70000
    253.05,  2772.20000,  1337.90000
    253.54,  2812.70000,  1329.20000
    254.02,  2833.60000,  1338.70000
    254.51,  2845.20000,  1331.40000
    254.99,  2840.90000,  1334.80000
    255.48,  2811.40000,  1327.80000
    255.96,  2783.10000,  1319.10000
    256.45,  2813.00000,  1302.80000
    256.94,  2811.70000,  1317.80000
    257.42,  2809.90000,  1316.00000
    257.91,  2821.30000,  1321.00000
    258.39,  2816.70000,  1322.60000
    258.88,  2799.00000,  1316.60000
    259.36,  2824.10000,  1298.10000
    259.85,  2814.10000,  1305.80000
    260.33,  2822.00000,  1310.40000
    260.82,  2848.30000,  1306.00000
    261.30,  2852.40000,  1312.00000
    261.79,  2825.30000,  1308.80000
    262.27,  2811.10000,  1299.80000
    262.76,  2789.70000,  1296.70000
    263.24,  2790.60000,  1299.80000
    263.73,  2817.00000,  1295.50000
    264.22,  2811.20000,  1308.20000
    264.70,  2870.40000,  1317.70000
    265.19,  2902.00000,  1310.10000
    265.67,  2903.20000,  1304.80000
    266.16,  2879.10000,  1301.10000
    266.64,  2852.00000,  1300.50000
    267.13,  2791.50000,  1305.20000
    267.61,  2793.40000,  1314.80000
    268.10,  2810.70000,  1308.10000
    268.58,  2809.50000,  1319.40000
    269.06,  2799.60000,  1330.20000
    269.55,  2812.90000,  1336.80000
    270.03,  2827.40000,  1336.00000
    270.52,  2830.00000,  1339.90000
    271.00,  2841.20000,  1339.40000
    271.49,  2839.40000,  1338.20000
    271.97,  2835.10000,  1344.30000
    272.46,  2842.30000,  1337.90000
    272.94,  2844.00000,  1341.60000
    273.43,  2839.20000,  1343.60000
    273.91,  2809.90000,  1365.10000
    274.40,  2795.70000,  1371.50000
    274.88,  2782.30000,  1379.80000
    275.37,  2789.20000,  1373.80000
    275.85,  2795.00000,  1370.50000
    276.33,  2801.60000,  1366.60000
    276.82,  2811.00000,  1383.40000
    277.30,  2819.10000,  1393.40000
    277.79,  2810.50000,  1400.80000
    278.27,  2826.00000,  1395.70000
    278.76,  2845.30000,  1389.80000
    279.24,  2854.80000,  1393.10000
    279.73,  2849.10000,  1402.50000
    280.21,  2835.00000,  1419.30000
    280.69,  2807.70000,  1436.80000
    281.18,  2811.10000,  1452.60000
    281.66,  2829.00000,  1461.80000
    282.15,  2867.10000,  1475.30000
    282.63,  2859.10000,  1486.00000
    283.11,  2841.40000,  1500.20000
    283.60,  2835.70000,  1507.30000
    284.08,  2847.10000,  1513.60000
    284.57,  2821.00000,  1516.60000
    285.05,  2822.00000,  1527.00000
    285.53,  2801.60000,  1547.20000
    286.02,  2773.60000,  1559.10000
    286.50,  2794.10000,  1568.70000
    286.99,  2816.10000,  1575.80000
    287.47,  2805.20000,  1572.30000
    287.95,  2798.00000,  1573.40000
    288.44,  2796.20000,  1579.60000
    288.92,  2790.00000,  1584.60000
    289.41,  2803.70000,  1594.40000
    289.89,  2829.90000,  1598.50000
    290.37,  2837.40000,  1582.90000
    290.86,  2863.70000,  1577.70000
    291.34,  2837.20000,  1574.70000
    291.82,  2814.20000,  1593.70000
    292.31,  2783.40000,  1612.50000
    292.79,  2796.20000,  1609.30000
    293.28,  2795.00000,  1593.40000
    293.76,  2813.60000,  1584.70000
    294.24,  2822.50000,  1566.40000
    294.73,  2842.10000,  1561.10000
    295.21,  2845.30000,  1566.00000
    295.69,  2856.80000,  1554.30000
    296.18,  2827.20000,  1551.50000
    296.66,  2783.30000,  1550.20000
    297.14,  2785.80000,  1538.10000
    297.63,  2799.60000,  1523.10000
    298.11,  2820.50000,  1508.90000
    298.59,  2852.40000,  1501.80000
    299.08,  2860.50000,  1504.40000
    299.56,  2855.10000,  1500.70000
    300.04,  2871.20000,  1500.30000
    300.53,  2868.80000,  1484.70000
    301.01,  2862.30000,  1462.60000
    301.49,  2850.90000,  1451.50000
    301.98,  2823.70000,  1437.30000
    302.46,  2802.30000,  1423.50000
    302.94,  2806.00000,  1407.60000
    303.42,  2808.90000,  1383.80000
    303.91,  2800.30000,  1360.60000
    304.39,  2785.20000,  1346.50000
    304.87,  2791.30000,  1335.60000
    305.36,  2810.70000,  1346.00000
    305.84,  2839.80000,  1346.30000
    306.32,  2875.30000,  1339.60000
    306.81,  2859.20000,  1324.50000
    307.29,  2832.80000,  1302.00000
    307.77,  2822.20000,  1289.50000
    308.25,  2821.50000,  1288.00000
    308.74,  2835.60000,  1280.20000
    309.22,  2831.50000,  1273.70000
    309.70,  2808.40000,  1277.50000
    310.18,  2790.70000,  1266.70000
    310.67,  2797.10000,  1265.70000
    311.15,  2814.40000,  1259.10000
    311.63,  2836.20000,  1252.20000
    312.12,  2844.50000,  1239.60000
    312.60,  2818.80000,  1232.60000
    313.08,  2798.00000,  1204.20000
    313.56,  2794.30000,  1187.20000
    314.05,  2791.40000,  1185.20000
    314.53,  2804.50000,  1198.40000
    315.01,  2857.50000,  1195.10000
    315.49,  2852.90000,  1195.80000
    315.98,  2852.80000,  1188.50000
    316.46,  2831.90000,  1184.00000
    316.94,  2792.50000,  1187.30000
    317.42,  2772.50000,  1193.40000
    317.90,  2781.40000,  1187.60000
    318.39,  2767.30000,  1182.60000
    318.87,  2814.50000,  1179.00000
    319.35,  2839.50000,  1171.90000
    319.83,  2849.50000,  1168.30000
    320.32,  2857.30000,  1164.70000
    320.80,  2866.70000,  1157.10000
    321.28,  2828.50000,  1151.70000
    321.76,  2861.20000,  1148.80000
    322.24,  2855.60000,  1146.50000
    322.73,  2868.50000,  1146.70000
    323.21,  2866.40000,  1144.70000
    323.69,  2874.00000,  1145.30000
    324.17,  2825.90000,  1149.20000
    324.65,  2801.50000,  1148.10000
    325.14,  2804.70000,  1144.80000
    325.62,  2822.80000,  1145.80000
    326.10,  2868.10000,  1136.30000
    326.58,  2895.60000,  1122.90000
    327.06,  2852.60000,  1120.50000
    327.55,  2862.80000,  1120.20000
    328.03,  2880.50000,  1127.20000
    328.51,  2882.00000,  1147.80000
    328.99,  2895.80000,  1151.00000
    329.47,  2890.00000,  1140.20000
    329.95,  2819.20000,  1136.70000
    330.44,  2826.20000,  1133.50000
    330.92,  2794.60000,  1130.80000
    331.40,  2777.50000,  1141.40000
    331.88,  2771.70000,  1145.70000
    332.36,  2787.90000,  1144.20000
    332.84,  2816.70000,  1135.10000
    333.33,  2859.20000,  1128.80000
    333.81,  2858.70000,  1128.80000
    334.29,  2863.30000,  1126.20000
    334.77,  2856.00000,  1126.50000
    335.25,  2839.30000,  1126.90000
    335.73,  2851.20000,  1121.60000
    336.21,  2850.50000,  1119.20000
    336.69,  2828.30000,  1129.30000
    337.18,  2822.30000,  1117.00000
    337.66,  2803.60000,  1104.90000
    338.14,  2788.10000,  1097.20000
    338.62,  2783.70000,  1094.80000
    339.10,  2811.40000,  1101.70000
    339.58,  2849.40000,  1108.30000
    340.06,  2858.90000,  1119.30000
    340.54,  2856.40000,  1121.20000
    341.03,  2841.50000,  1119.70000
    341.51,  2812.10000,  1107.70000
    341.99,  2813.40000,  1102.40000
    342.47,  2829.50000,  1083.50000
    342.95,  2822.30000,  1093.20000
    343.43,  2818.30000,  1090.50000
    343.91,  2820.20000,  1092.50000
    344.39,  2803.80000,  1086.90000
    344.87,  2789.70000,  1088.50000
    345.35,  2807.90000,  1085.70000
    345.84,  2815.00000,  1106.40000
    346.32,  2860.90000,  1106.80000
    346.80,  2878.90000,  1112.60000
    347.28,  2867.40000,  1117.50000
    347.76,  2833.90000,  1105.30000
    348.24,  2835.20000,  1084.10000
    348.72,  2857.10000,  1082.40000
    349.20,  2890.50000,  1076.00000
    349.68,  2880.20000,  1083.40000
    350.16,  2849.30000,  1091.10000
    350.64,  2802.10000,  1090.10000
    351.12,  2790.90000,  1072.50000
    351.60,  2838.20000,  1077.00000
    352.08,  2881.80000,  1076.80000
    352.56,  2899.10000,  1086.70000
    353.04,  2892.90000,  1087.60000
    353.53,  2870.20000,  1093.80000
    354.01,  2855.10000,  1077.70000
    354.49,  2865.50000,  1079.90000
    354.97,  2873.60000,  1070.00000
    355.45,  2871.10000,  1069.30000
    355.93,  2840.50000,  1073.00000
    356.41,  2845.30000,  1084.80000
    356.89,  2829.20000,  1079.60000
    357.37,  2836.30000,  1082.50000
    357.85,  2823.10000,  1081.80000
    358.33,  2813.70000,  1083.30000
    358.81,  2786.10000,  1091.20000
    359.29,  2799.20000,  1085.90000
    359.77,  2823.10000,  1076.20000
    360.25,  2855.10000,  1068.60000
    360.73,  2860.30000,  1069.10000
    361.21,  2848.50000,  1079.30000
    361.69,  2847.50000,  1087.40000
    362.17,  2843.30000,  1083.00000
    362.65,  2858.70000,  1083.20000
    363.13,  2861.20000,  1083.80000
    363.61,  2870.70000,  1081.40000
    364.09,  2839.70000,  1083.20000
    364.57,  2834.30000,  1083.70000
    365.05,  2838.40000,  1080.80000
    365.53,  2826.00000,  1079.40000
    366.01,  2838.20000,  1084.80000
    366.49,  2873.70000,  1093.60000
    366.97,  2829.80000,  1097.40000
    367.45,  2841.80000,  1100.60000
    367.93,  2876.70000,  1097.80000
    368.41,  2864.70000,  1092.90000
    368.89,  2869.50000,  1090.80000
    369.37,  2870.30000,  1101.20000
    369.85,  2819.30000,  1095.10000
    370.33,  2840.80000,  1084.00000
    370.80,  2862.20000,  1079.20000
    371.28,  2860.60000,  1079.10000
    371.76,  2833.70000,  1090.90000
    372.24,  2809.70000,  1108.70000
    372.72,  2805.90000,  1115.50000
    373.20,  2828.90000,  1112.90000
    373.68,  2858.60000,  1107.10000
    374.16,  2883.90000,  1094.50000
    374.64,  2862.70000,  1092.60000
    375.12,  2836.50000,  1097.10000
    375.60,  2863.20000,  1108.50000
    376.08,  2838.70000,  1120.80000
    376.56,  2829.10000,  1130.00000
    377.04,  2827.50000,  1120.20000
    377.52,  2837.70000,  1108.50000
    377.99,  2830.30000,  1099.60000
    378.47,  2860.10000,  1102.80000
    378.95,  2838.60000,  1119.20000
    379.43,  2848.10000,  1136.60000
    379.91,  2851.00000,  1143.00000
    380.39,  2903.50000,  1135.90000
    380.87,  2928.20000,  1129.60000
    381.35,  2921.80000,  1121.20000
    381.83,  2890.60000,  1123.90000
    382.31,  2848.70000,  1138.40000
    382.79,  2803.90000,  1155.10000
    383.26,  2812.10000,  1157.50000
    383.74,  2818.10000,  1160.00000
    384.22,  2820.10000,  1154.50000
    384.70,  2830.30000,  1155.70000
    385.18,  2809.30000,  1154.90000
    385.66,  2818.00000,  1155.10000
    386.14,  2819.90000,  1157.40000
    386.62,  2826.50000,  1170.90000
    387.09,  2848.00000,  1175.90000
    387.57,  2864.20000,  1174.90000
    388.05,  2863.20000,  1161.90000
    388.53,  2864.80000,  1159.60000
    389.01,  2859.30000,  1170.60000
    389.49,  2863.90000,  1187.60000
    389.97,  2863.90000,  1191.20000
    390.44,  2852.90000,  1193.30000
    390.92,  2840.70000,  1188.20000
    391.40,  2829.40000,  1186.50000
    391.88,  2830.90000,  1196.40000
    392.36,  2838.60000,  1193.80000
    392.84,  2838.20000,  1198.60000
    393.32,  2845.70000,  1205.50000
    393.79,  2838.00000,  1200.20000
    394.27,  2889.20000,  1205.10000
    394.75,  2894.60000,  1221.00000
    395.23,  2891.90000,  1218.10000
    395.71,  2869.00000,  1228.80000
    396.18,  2865.30000,  1231.30000
    396.66,  2862.60000,  1224.20000
    397.14,  2898.50000,  1226.40000
    397.62,  2867.00000,  1224.70000
    398.10,  2864.10000,  1220.90000
    398.58,  2850.30000,  1232.60000
    399.05,  2857.20000,  1243.70000
    399.53,  2863.00000,  1257.40000
    400.01,  2862.70000,  1266.30000
    400.49,  2838.10000,  1264.90000
    400.97,  2818.10000,  1265.70000
    401.44,  2786.40000,  1266.20000
    401.92,  2808.50000,  1261.70000
    402.40,  2813.10000,  1262.40000
    402.88,  2844.80000,  1255.00000
    403.36,  2860.30000,  1247.60000
    403.83,  2879.20000,  1236.10000
    404.31,  2848.00000,  1234.50000
    404.79,  2858.60000,  1234.00000
    405.27,  2836.20000,  1230.80000
    405.74,  2826.70000,  1234.40000
    406.22,  2845.40000,  1239.20000
    406.70,  2870.90000,  1234.90000
    407.18,  2849.40000,  1239.40000
    407.65,  2835.00000,  1243.50000
    408.13,  2802.40000,  1229.90000
    408.61,  2810.00000,  1232.90000
    409.09,  2830.70000,  1229.10000
    409.56,  2842.50000,  1215.20000
    410.04,  2854.40000,  1212.40000
    410.52,  2847.50000,  1214.50000
    411.00,  2817.10000,  1212.20000
    411.47,  2812.10000,  1210.90000
    411.95,  2801.50000,  1203.80000
    412.43,  2802.10000,  1195.70000
    412.91,  2810.90000,  1192.80000
    413.38,  2828.70000,  1191.50000
    413.86,  2842.30000,  1187.80000
    414.34,  2841.30000,  1174.60000
    414.82,  2846.90000,  1165.60000
    415.29,  2841.10000,  1158.70000
    415.77,  2855.20000,  1153.30000
    416.25,  2853.70000,  1160.70000
    416.72,  2856.70000,  1161.70000
    417.20,  2840.90000,  1169.40000
    417.68,  2805.20000,  1163.90000
    418.16,  2796.10000,  1157.70000
    418.63,  2825.00000,  1148.60000
    419.11,  2820.30000,  1152.00000
    419.59,  2832.10000,  1136.20000
    420.06,  2805.30000,  1130.20000
    420.54,  2776.20000,  1112.70000
    421.02,  2794.30000,  1113.70000
    421.50,  2822.10000,  1115.30000
    421.97,  2823.80000,  1131.80000
    422.45,  2824.90000,  1122.10000
    422.93,  2810.40000,  1121.00000
    423.40,  2798.20000,  1107.90000
    423.88,  2800.50000,  1105.90000
    424.36,  2806.00000,  1101.40000
    424.83,  2814.40000,  1109.30000
    425.31,  2840.80000,  1100.10000
    425.79,  2883.10000,  1101.90000
    426.26,  2918.30000,  1104.70000
    426.74,  2897.50000,  1111.20000
    427.22,  2877.40000,  1107.10000
    427.69,  2863.90000,  1097.30000
    428.17,  2844.50000,  1081.10000
    428.65,  2825.70000,  1074.80000
    429.12,  2860.40000,  1076.40000
    429.60,  2849.60000,  1082.30000
    430.08,  2861.70000,  1081.10000
    430.55,  2873.00000,  1080.70000
    431.03,  2871.00000,  1072.40000
    431.50,  2860.40000,  1073.90000
    431.98,  2856.40000,  1066.80000
    432.46,  2861.10000,  1071.20000
    432.93,  2837.90000,  1075.30000
    433.41,  2821.40000,  1070.50000
    433.89,  2818.50000,  1064.70000
    434.36,  2823.80000,  1065.30000
    434.84,  2817.90000,  1059.10000
    435.31,  2842.80000,  1054.20000
    435.79,  2834.10000,  1062.30000
    436.27,  2821.90000,  1064.10000
    436.74,  2810.00000,  1082.80000
    437.22,  2820.90000,  1078.80000
    437.70,  2821.20000,  1073.40000
    438.17,  2823.90000,  1052.90000
    438.65,  2820.80000,  1057.40000
    439.12,  2834.90000,  1059.20000
    439.60,  2832.50000,  1070.30000
    440.08,  2838.80000,  1075.00000
    440.55,  2822.90000,  1076.60000
    441.03,  2830.10000,  1073.70000
    441.50,  2823.60000,  1081.50000
    441.98,  2847.10000,  1072.90000
    442.45,  2841.90000,  1066.10000
    442.93,  2835.90000,  1072.50000
    443.41,  2829.30000,  1061.60000
    443.88,  2836.50000,  1058.00000
    444.36,  2823.90000,  1059.70000
    444.83,  2824.60000,  1062.40000
    445.31,  2824.50000,  1068.90000
    445.78,  2801.90000,  1076.90000
    446.26,  2803.80000,  1073.20000
    446.74,  2799.90000,  1067.70000
    447.21,  2816.80000,  1063.90000
    447.69,  2835.10000,  1057.70000
    448.16,  2856.20000,  1061.40000
    448.64,  2838.00000,  1053.60000
    449.11,  2828.30000,  1049.60000
    449.59,  2836.40000,  1047.60000
    450.06,  2832.40000,  1058.20000
    450.54,  2829.80000,  1055.70000
    451.02,  2854.70000,  1059.00000
    451.49,  2858.90000,  1057.00000
    451.97,  2854.10000,  1055.00000
    452.44,  2849.60000,  1056.90000
    452.92,  2827.50000,  1065.80000
    453.39,  2805.20000,  1072.30000
    453.87,  2812.70000,  1075.60000
    454.34,  2812.90000,  1077.70000
    454.82,  2818.10000,  1078.60000
    455.29,  2831.90000,  1082.80000
    455.77,  2850.30000,  1072.50000
    456.24,  2828.20000,  1066.60000
    456.72,  2813.60000,  1051.90000
    457.19,  2799.10000,  1051.40000
    457.67,  2805.00000,  1058.60000
    458.14,  2821.70000,  1077.30000
    458.62,  2833.80000,  1076.70000
    459.09,  2827.60000,  1071.00000
    459.57,  2811.50000,  1060.50000
    460.04,  2818.30000,  1057.50000
    460.52,  2826.30000,  1050.60000
    460.99,  2813.40000,  1055.60000
    461.47,  2812.10000,  1047.20000
    461.94,  2788.70000,  1048.40000
    462.42,  2784.40000,  1051.90000
    462.89,  2809.10000,  1052.30000
    463.37,  2826.50000,  1065.50000
    463.84,  2830.50000,  1074.30000
    464.32,  2841.70000,  1064.70000
    464.79,  2842.80000,  1059.70000
    465.26,  2847.80000,  1059.00000
    465.74,  2831.70000,  1047.80000
    466.21,  2845.30000,  1051.30000
    466.69,  2844.60000,  1057.50000
    467.16,  2842.30000,  1060.70000
    467.64,  2829.40000,  1061.30000
    468.11,  2809.40000,  1065.30000
    468.59,  2803.20000,  1058.80000
    469.06,  2824.10000,  1055.70000
    469.54,  2853.60000,  1058.90000
    470.01,  2857.30000,  1059.70000
    470.48,  2817.20000,  1055.40000
    470.96,  2830.90000,  1055.60000
    471.43,  2851.90000,  1060.80000
    471.91,  2870.20000,  1060.60000
    472.38,  2904.70000,  1067.70000
    472.86,  2874.20000,  1075.90000
    473.33,  2817.50000,  1070.20000
    473.80,  2812.70000,  1071.10000
    474.28,  2820.80000,  1069.90000
    474.75,  2837.30000,  1060.70000
    475.23,  2873.70000,  1066.40000
    475.70,  2869.90000,  1074.40000
    476.17,  2847.90000,  1065.00000
    476.65,  2849.00000,  1051.00000
    477.12,  2853.30000,  1041.20000
    477.60,  2817.00000,  1040.70000
    478.07,  2818.20000,  1055.10000
    478.54,  2829.40000,  1062.60000
    479.02,  2830.60000,  1070.80000
    479.49,  2857.50000,  1066.00000
    479.97,  2866.40000,  1062.40000
    480.44,  2858.30000,  1057.20000
    480.91,  2833.80000,  1058.30000
    481.39,  2829.30000,  1053.90000
    481.86,  2825.40000,  1060.00000
    482.34,  2799.30000,  1069.80000
    482.81,  2810.70000,  1072.50000
    483.28,  2837.90000,  1071.20000
    483.76,  2819.00000,  1070.30000
    484.23,  2842.40000,  1063.80000
    484.70,  2834.40000,  1061.10000
    485.18,  2823.90000,  1064.40000
    485.65,  2831.90000,  1054.60000
    486.12,  2839.80000,  1046.60000
    486.60,  2827.90000,  1039.90000
    487.07,  2846.00000,  1025.10000
    487.55,  2868.50000,  1030.10000
    488.02,  2893.20000,  1040.70000
    488.49,  2882.60000,  1048.80000
    488.97,  2884.80000,  1055.20000
    489.44,  2871.00000,  1066.30000
    489.91,  2828.90000,  1064.40000
    490.39,  2822.10000,  1066.90000
    490.86,  2789.60000,  1062.10000
    491.33,  2753.60000,  1064.60000
    491.81,  2793.40000,  1066.00000
    492.28,  2839.00000,  1063.30000
    492.75,  2826.00000,  1068.50000
    493.23,  2874.90000,  1068.10000
    493.70,  2892.10000,  1061.80000
    494.17,  2883.20000,  1062.20000
    494.64,  2870.10000,  1071.30000
    495.12,  2837.10000,  1067.90000
    495.59,  2835.00000,  1068.80000
    496.06,  2870.50000,  1060.80000
    496.54,  2893.20000,  1062.10000
    497.01,  2876.10000,  1056.30000
    497.48,  2853.90000,  1064.00000
    497.96,  2829.60000,  1063.60000
    498.43,  2863.50000,  1051.10000
    498.90,  2866.30000,  1050.00000
    499.37,  2890.10000,  1054.30000
    499.85,  2858.80000,  1058.80000
    500.32,  2851.90000,  1070.20000
    500.79,  2832.00000,  1082.30000
    501.27,  2837.30000,  1080.80000
    501.74,  2831.90000,  1078.80000
    502.21,  2837.00000,  1060.40000
    502.68,  2825.80000,  1048.80000
    503.16,  2815.40000,  1040.70000
    503.63,  2808.70000,  1040.50000
    504.10,  2821.00000,  1041.90000
    504.57,  2815.70000,  1042.70000
    505.05,  2832.10000,  1047.40000
    505.52,  2855.40000,  1048.50000
    505.99,  2849.80000,  1047.20000
    506.46,  2843.70000,  1055.10000
    506.94,  2831.50000,  1053.60000
    507.41,  2813.50000,  1050.70000
    507.88,  2813.20000,  1052.50000
    508.35,  2807.00000,  1052.40000
    508.83,  2792.30000,  1053.90000
    509.30,  2822.20000,  1060.20000
    509.77,  2837.10000,  1047.60000
    510.24,  2841.70000,  1037.30000
    510.72,  2829.90000,  1028.30000
    511.19,  2813.30000,  1026.70000
    511.66,  2804.50000,  1035.10000
    512.13,  2833.20000,  1036.90000
    512.60,  2827.30000,  1033.50000
    513.08,  2821.20000,  1043.20000
    513.55,  2814.40000,  1044.90000
    514.02,  2800.90000,  1043.40000
    514.49,  2800.70000,  1047.70000
    514.97,  2813.40000,  1044.70000
    515.44,  2829.40000,  1036.70000
    515.91,  2823.50000,  1042.40000
    516.38,  2824.10000,  1037.30000
    516.85,  2787.90000,  1035.70000
    517.33,  2770.60000,  1028.50000
    517.80,  2774.50000,  1025.30000
    518.27,  2800.30000,  1022.50000
    518.74,  2836.80000,  1027.20000
    519.21,  2865.80000,  1024.60000
    519.68,  2847.80000,  1022.20000
    520.16,  2826.40000,  1021.30000
    520.63,  2808.80000,  1022.40000
    521.10,  2797.10000,  1025.00000
    521.57,  2816.40000,  1032.60000
    522.04,  2819.00000,  1041.60000
    522.52,  2821.10000,  1030.80000
    522.99,  2807.70000,  1040.60000
    523.46,  2823.90000,  1046.90000
    523.93,  2833.80000,  1043.40000
    524.40,  2860.80000,  1050.50000
    524.87,  2848.70000,  1052.60000
    525.34,  2835.10000,  1045.40000
    525.82,  2812.30000,  1051.40000
    526.29,  2820.30000,  1053.00000
    526.76,  2820.80000,  1048.20000
    527.23,  2837.10000,  1052.30000
    527.70,  2816.70000,  1053.30000
    528.17,  2813.40000,  1057.20000
    528.64,  2807.20000,  1063.60000
    529.12,  2821.30000,  1052.80000
    529.59,  2820.80000,  1051.20000
    530.06,  2826.20000,  1044.40000
    530.53,  2855.40000,  1048.10000
    531.00,  2825.20000,  1048.60000
    531.47,  2781.00000,  1055.60000
    531.94,  2774.50000,  1053.90000
    532.41,  2768.60000,  1070.60000
    532.89,  2798.40000,  1065.00000
    533.36,  2864.30000,  1067.60000
    533.83,  2851.40000,  1062.20000
    534.30,  2835.80000,  1056.90000
    534.77,  2849.10000,  1051.30000
    535.24,  2851.50000,  1060.70000
    535.71,  2844.30000,  1063.90000
    536.18,  2845.00000,  1083.50000
    536.65,  2836.20000,  1089.50000
    537.13,  2807.20000,  1091.80000
    537.60,  2797.30000,  1087.50000
    538.07,  2804.30000,  1080.00000
    538.54,  2793.00000,  1075.30000
    539.01,  2809.90000,  1080.50000
    539.48,  2844.10000,  1087.30000
    539.95,  2855.00000,  1090.30000
    540.42,  2854.40000,  1110.20000
    540.89,  2845.30000,  1106.50000
    541.36,  2821.80000,  1104.40000
    541.83,  2820.90000,  1099.40000
    542.30,  2814.90000,  1112.10000
    542.77,  2828.20000,  1108.50000
    543.25,  2840.80000,  1122.30000
    543.72,  2846.50000,  1112.80000
    544.19,  2846.90000,  1116.10000
    544.66,  2823.90000,  1131.10000
    545.13,  2803.40000,  1148.30000
    545.60,  2796.10000,  1151.20000
    546.07,  2821.60000,  1148.70000
    546.54,  2837.50000,  1144.20000
    547.01,  2850.30000,  1147.00000
    547.48,  2842.50000,  1162.60000
    547.95,  2828.90000,  1160.20000
    548.42,  2807.90000,  1161.80000
    548.89,  2834.00000,  1160.50000
    549.36,  2825.40000,  1163.00000
    549.83,  2813.40000,  1167.80000
    550.30,  2861.10000,  1177.70000
    550.77,  2866.60000,  1170.90000
    551.24,  2869.60000,  1170.40000
    551.71,  2888.10000,  1167.20000
    552.18,  2861.00000,  1172.40000
    552.65,  2803.80000,  1180.00000
    553.12,  2828.70000,  1188.10000
    553.59,  2827.20000,  1195.90000
    554.06,  2829.00000,  1193.70000
    554.53,  2842.50000,  1191.10000
    555.00,  2836.40000,  1191.80000
    555.47,  2824.70000,  1187.40000
    555.94,  2821.60000,  1187.00000
    556.41,  2815.50000,  1194.60000
    556.88,  2792.00000,  1205.10000
    557.35,  2784.90000,  1219.70000
    557.82,  2781.50000,  1221.80000
    558.29,  2800.40000,  1217.60000
    558.76,  2838.10000,  1219.50000
    559.23,  2852.80000,  1227.60000
    559.70,  2851.50000,  1234.90000
    560.17,  2838.50000,  1240.50000
    560.64,  2830.80000,  1240.50000
    561.11,  2821.80000,  1225.70000
    561.58,  2849.20000,  1212.20000
    562.05,  2832.10000,  1221.70000
    562.52,  2847.00000,  1217.50000
    562.99,  2839.20000,  1219.70000
    563.46,  2846.70000,  1224.10000
    563.93,  2829.70000,  1228.30000
    564.40,  2834.70000,  1230.40000
    564.87,  2832.30000,  1243.10000
    565.34,  2855.80000,  1244.40000
    565.81,  2842.30000,  1240.30000
    566.28,  2842.30000,  1240.10000
    566.74,  2815.00000,  1249.10000
    567.21,  2818.50000,  1233.20000
    567.68,  2850.20000,  1213.30000
    568.15,  2855.80000,  1200.00000
    568.62,  2842.70000,  1200.80000
    569.09,  2831.00000,  1211.30000
    569.56,  2815.30000,  1224.20000
    570.03,  2812.60000,  1218.50000
    570.50,  2849.70000,  1213.00000
    570.97,  2847.70000,  1204.90000
    571.44,  2837.20000,  1210.00000
    571.91,  2836.20000,  1219.40000
    572.38,  2831.70000,  1232.50000
    572.84,  2810.70000,  1242.90000
    573.31,  2821.60000,  1246.00000
    573.78,  2821.90000,  1227.50000
    574.25,  2817.10000,  1226.30000
    574.72,  2834.60000,  1221.30000
    575.19,  2826.20000,  1219.40000
    575.66,  2815.70000,  1224.70000
    576.13,  2805.20000,  1231.50000
    576.60,  2818.20000,  1226.10000
    577.07,  2844.60000,  1236.50000
    577.53,  2874.10000,  1226.00000
    578.00,  2865.30000,  1210.40000
    578.47,  2849.20000,  1220.70000
    578.94,  2822.50000,  1221.50000
    579.41,  2799.00000,  1216.70000
    579.88,  2814.90000,  1216.60000
    580.35,  2824.20000,  1202.50000
    580.82,  2827.90000,  1198.60000
    581.28,  2846.40000,  1208.00000
    581.75,  2849.60000,  1206.80000
    582.22,  2840.00000,  1214.10000
    582.69,  2845.70000,  1218.60000
    583.16,  2841.70000,  1209.60000
    583.63,  2832.90000,  1203.10000
    584.10,  2856.80000,  1198.30000
    584.56,  2869.00000,  1204.50000
    585.03,  2857.10000,  1221.60000
    585.50,  2853.40000,  1218.90000
    585.97,  2824.30000,  1214.40000
    586.44,  2821.20000,  1210.00000
    586.91,  2840.80000,  1207.70000
    587.37,  2841.20000,  1208.60000
    587.84,  2822.40000,  1215.40000
    588.31,  2813.20000,  1206.10000
    588.78,  2778.00000,  1211.60000
    589.25,  2807.40000,  1218.00000
    589.72,  2809.40000,  1212.10000
    590.18,  2834.20000,  1212.50000
    590.65,  2861.00000,  1209.20000
    591.12,  2856.10000,  1196.30000
    591.59,  2856.30000,  1199.00000
    592.06,  2837.70000,  1191.70000
    592.52,  2788.60000,  1189.30000
    592.99,  2798.80000,  1196.90000
    593.46,  2796.50000,  1198.40000
    593.93,  2762.30000,  1198.00000
    594.40,  2791.00000,  1213.60000
    594.86,  2807.90000,  1212.70000
    595.33,  2821.80000,  1208.30000
    595.80,  2844.00000,  1212.80000
    596.27,  2844.80000,  1214.80000
    596.74,  2826.10000,  1212.10000
    597.20,  2823.10000,  1204.10000
    597.67,  2834.40000,  1200.30000
    598.14,  2823.50000,  1190.60000
    598.61,  2817.30000,  1198.20000
    599.07,  2811.90000,  1213.50000
    599.54,  2801.00000,  1212.50000
    600.01,  2785.60000,  1208.20000
    600.48,  2841.60000,  1213.10000
    600.95,  2867.20000,  1208.80000
    601.41,  2878.00000,  1208.70000
    601.88,  2853.80000,  1216.60000
    602.35,  2800.90000,  1208.20000
    602.82,  2751.50000,  1208.20000
    603.28,  2771.20000,  1207.40000
    603.75,  2771.70000,  1200.40000
    604.22,  2789.40000,  1215.20000
    604.69,  2802.80000,  1208.00000
    605.15,  2824.60000,  1190.10000
    605.62,  2826.00000,  1178.40000
    606.09,  2823.70000,  1175.50000
    606.56,  2802.60000,  1175.80000
    607.02,  2796.40000,  1195.20000
    607.49,  2790.50000,  1185.80000
    607.96,  2817.20000,  1180.60000
    608.42,  2815.90000,  1172.20000
    608.89,  2867.20000,  1173.60000
    609.36,  2872.70000,  1175.90000
    609.83,  2864.10000,  1172.50000
    610.29,  2828.80000,  1165.50000
    610.76,  2808.30000,  1158.40000
    611.23,  2798.30000,  1149.00000
    611.69,  2827.20000,  1156.70000
    612.16,  2824.70000,  1157.90000
    612.63,  2823.30000,  1155.40000
    613.10,  2803.40000,  1151.30000
    613.56,  2793.10000,  1137.00000
    614.03,  2800.60000,  1138.60000
    614.50,  2807.40000,  1134.20000
    614.96,  2816.80000,  1131.80000
    615.43,  2822.20000,  1128.70000
    615.90,  2837.20000,  1127.20000
    616.36,  2839.90000,  1128.00000
    616.83,  2822.10000,  1128.40000
    617.30,  2817.60000,  1114.30000
    617.76,  2792.80000,  1105.90000
    618.23,  2773.60000,  1105.60000
    618.70,  2774.50000,  1112.20000
    619.16,  2787.20000,  1121.60000
    619.63,  2782.80000,  1125.30000
    620.10,  2789.10000,  1118.60000
    620.56,  2785.50000,  1104.60000
    621.03,  2806.50000,  1101.40000
    621.50,  2813.30000,  1095.10000
    621.96,  2822.70000,  1088.50000
    622.43,  2823.00000,  1085.60000
    622.90,  2828.70000,  1070.20000
    623.36,  2829.50000,  1063.40000
    623.83,  2831.80000,  1068.80000
    624.30,  2824.50000,  1069.70000
    624.76,  2826.90000,  1079.00000
    625.23,  2831.20000,  1084.40000
    625.70,  2839.10000,  1076.30000
    626.16,  2837.20000,  1067.20000
    626.63,  2805.00000,  1063.50000
    627.09,  2804.40000,  1052.10000
    627.56,  2817.10000,  1057.20000
    628.03,  2814.40000,  1055.10000
    628.49,  2823.80000,  1051.70000
    628.96,  2810.60000,  1043.70000
    629.43,  2805.70000,  1040.70000
    629.89,  2803.70000,  1040.80000
    630.36,  2812.20000,  1040.60000
    630.82,  2803.20000,  1035.80000
    631.29,  2802.70000,  1041.10000
    631.76,  2787.10000,  1040.10000
    632.22,  2777.10000,  1041.70000
    632.69,  2774.00000,  1046.70000
    633.15,  2793.60000,  1043.20000
    633.62,  2822.80000,  1035.90000
    634.09,  2841.00000,  1033.00000
    634.55,  2848.00000,  1034.70000
    635.02,  2822.60000,  1029.80000
    635.48,  2808.90000,  1029.10000
    635.95,  2801.70000,  1016.00000
    636.42,  2807.90000,  1006.60000
    636.88,  2790.60000,  1006.00000
    637.35,  2788.10000,  1007.70000
    637.81,  2801.90000,   999.70000
    638.28,  2809.60000,  1008.10000
    638.74,  2827.90000,  1003.00000
    639.21,  2836.70000,  1007.80000
    639.68,  2807.90000,  1011.70000
    640.14,  2784.70000,  1004.80000
    640.61,  2799.30000,   998.10000
    641.07,  2771.60000,  1007.60000
    641.54,  2797.70000,   996.30000
    642.00,  2814.40000,   991.80000
    642.47,  2824.10000,   991.50000
    642.93,  2822.80000,   991.20000
    643.40,  2828.40000,   991.20000
    643.87,  2800.10000,   997.50000
    644.33,  2816.30000,   979.20000
    644.80,  2817.60000,   977.20000
    645.26,  2803.40000,   976.80000
    645.73,  2793.80000,   983.50000
    646.19,  2789.50000,   985.80000
    646.66,  2792.10000,   988.30000
    647.12,  2792.70000,   977.50000
    647.59,  2801.30000,   975.20000
    648.05,  2809.10000,   970.30000
    648.52,  2798.80000,   981.20000
    648.98,  2788.90000,   975.10000
    649.45,  2783.80000,   966.70000
    649.91,  2760.20000,   964.20000
    650.38,  2762.80000,   968.20000
    650.84,  2813.30000,   963.50000
    651.31,  2811.70000,   969.60000
    651.77,  2809.90000,   964.20000
    652.24,  2785.90000,   966.40000
    652.70,  2765.30000,   972.10000
    653.17,  2760.50000,   965.40000
    653.63,  2798.70000,   957.80000
    654.10,  2794.60000,   961.20000
    654.56,  2804.30000,   961.50000
    655.03,  2786.40000,   972.00000
    655.49,  2790.70000,   968.20000
    655.96,  2790.10000,   948.10000
    656.42,  2783.90000,   949.70000
    656.89,  2772.50000,   952.10000
    657.35,  2827.30000,   951.60000
    657.82,  2870.70000,   953.30000
    658.28,  2904.50000,   954.40000
    658.75,  2920.40000,   949.00000
    659.21,  2881.30000,   949.80000
    659.68,  2849.60000,   948.80000
    660.14,  2840.80000,   939.10000
    660.61,  2804.70000,   934.20000
    661.07,  2825.10000,   930.40000
    661.53,  2843.70000,   927.50000
    662.00,  2865.40000,   928.20000
    662.46,  2861.20000,   928.30000
    662.93,  2843.30000,   926.40000
    663.39,  2809.50000,   936.30000
    663.86,  2834.80000,   927.20000
    664.32,  2832.30000,   929.80000
    664.79,  2858.00000,   925.80000
    665.25,  2843.50000,   910.00000
    665.71,  2822.40000,   906.40000
    666.18,  2790.70000,   910.40000
    666.64,  2811.60000,   911.50000
    667.11,  2801.10000,   922.60000
    667.57,  2822.20000,   915.00000
    668.04,  2835.70000,   908.20000
    668.50,  2830.80000,   900.60000
    668.96,  2812.40000,   893.10000
    669.43,  2834.30000,   899.00000
    669.89,  2805.80000,   905.60000
    670.36,  2785.60000,   906.90000
    670.82,  2777.50000,   912.00000
    671.28,  2784.10000,   905.10000
    671.75,  2795.10000,   894.70000
    672.21,  2828.00000,   892.50000
    672.68,  2836.00000,   893.70000
    673.14,  2844.90000,   891.00000
    673.60,  2856.20000,   894.00000
    674.07,  2834.00000,   886.00000
    674.53,  2810.60000,   876.00000
    675.00,  2801.00000,   870.70000
    675.46,  2791.00000,   871.60000
    675.92,  2788.80000,   867.90000
    676.39,  2817.90000,   883.50000
    676.85,  2816.20000,   877.10000
    677.31,  2826.30000,   872.60000
    677.78,  2832.20000,   875.20000
    678.24,  2821.70000,   866.40000
    678.70,  2803.60000,   860.40000
    679.17,  2787.30000,   861.50000
    679.63,  2763.30000,   854.50000
    680.10,  2760.20000,   854.00000
    680.56,  2780.10000,   858.00000
    681.02,  2784.60000,   846.30000
    681.49,  2814.10000,   840.00000
    681.95,  2813.00000,   839.60000
    682.41,  2804.70000,   839.90000
    682.88,  2790.70000,   843.20000
    683.34,  2782.50000,   851.90000
    683.80,  2765.50000,   854.30000
    684.27,  2788.20000,   851.20000
    684.73,  2797.80000,   850.40000
    685.19,  2825.20000,   846.40000
    685.66,  2850.10000,   836.60000
    686.12,  2851.90000,   837.60000
    686.58,  2857.70000,   841.20000
    687.05,  2849.00000,   840.10000
    687.51,  2825.50000,   844.90000
    687.97,  2817.20000,   842.10000
    688.44,  2821.70000,   826.40000
    688.90,  2818.20000,   823.20000
    689.36,  2819.80000,   812.30000
    689.83,  2829.60000,   805.80000
    690.29,  2841.40000,   810.20000
    690.75,  2853.00000,   812.80000
    691.21,  2861.70000,   814.10000
    691.68,  2839.00000,   826.50000
    692.14,  2806.00000,   818.60000
    692.60,  2819.30000,   814.00000
    693.07,  2808.70000,   810.40000
    693.53,  2824.60000,   804.80000
    693.99,  2838.90000,   805.10000
    694.45,  2833.90000,   811.40000
    694.92,  2843.40000,   809.40000
    695.38,  2854.60000,   813.80000
    695.84,  2837.50000,   813.20000
    696.31,  2825.30000,   799.30000
    696.77,  2834.80000,   801.10000
    697.23,  2831.20000,   797.30000
    697.69,  2837.80000,   800.50000
    698.16,  2817.40000,   807.80000
    698.62,  2803.20000,   800.30000
    699.08,  2781.00000,   785.20000
    699.54,  2786.20000,   778.40000
    700.01,  2782.40000,   769.10000
    700.47,  2772.30000,   770.60000
    700.93,  2762.40000,   783.60000
    701.39,  2770.40000,   790.10000
    701.86,  2784.00000,   797.40000
    702.32,  2788.10000,   792.50000
    702.78,  2800.90000,   781.40000
    703.24,  2794.60000,   772.10000
    703.71,  2793.10000,   777.40000
    704.17,  2809.50000,   773.50000
    704.63,  2809.00000,   773.40000
    705.09,  2799.10000,   770.80000
    705.56,  2828.10000,   768.20000
    706.02,  2826.40000,   775.60000
    706.48,  2807.90000,   779.50000
    706.94,  2808.10000,   776.50000
    707.40,  2789.20000,   765.90000
    707.87,  2782.90000,   766.50000
    708.33,  2786.60000,   771.50000
    708.79,  2768.80000,   781.80000
    709.25,  2739.90000,   779.10000
    709.72,  2754.80000,   771.70000
    710.18,  2782.20000,   753.40000
    710.64,  2793.40000,   744.00000
    711.10,  2788.10000,   743.50000
    711.56,  2794.30000,   755.30000
    712.03,  2811.80000,   756.00000
    712.49,  2839.20000,   753.20000
    712.95,  2858.60000,   749.10000
    713.41,  2839.10000,   749.40000
    713.87,  2828.30000,   743.10000
    714.33,  2819.80000,   745.80000
    714.80,  2808.50000,   743.40000
    715.26,  2768.40000,   742.10000
    715.72,  2764.00000,   745.70000
    716.18,  2756.50000,   756.70000
    716.64,  2774.20000,   758.60000
    717.11,  2782.80000,   757.50000
    717.57,  2788.10000,   750.40000
    718.03,  2762.60000,   744.80000
    718.49,  2771.60000,   741.90000
    718.95,  2813.30000,   734.40000
    719.41,  2820.30000,   732.20000
    719.87,  2790.20000,   726.50000
    720.34,  2787.40000,   720.20000
    720.80,  2772.90000,   732.70000
    721.26,  2763.90000,   738.90000
    721.72,  2799.30000,   739.40000
    722.18,  2786.80000,   746.50000
    722.64,  2764.00000,   740.40000
    723.10,  2780.10000,   731.30000
    723.57,  2790.40000,   724.90000
    724.03,  2798.60000,   718.60000
    724.49,  2799.80000,   713.00000
    724.95,  2755.70000,   718.60000
    725.41,  2809.70000,   726.80000
    725.87,  2858.30000,   729.40000
    726.33,  2886.60000,   722.50000
    726.80,  2895.20000,   723.80000
    727.26,  2857.20000,   714.30000
    727.72,  2777.10000,   707.60000
    728.18,  2781.20000,   712.80000
    728.64,  2772.10000,   708.20000
    729.10,  2783.40000,   708.80000
    729.56,  2799.50000,   713.50000
    730.02,  2824.70000,   711.90000
    730.48,  2818.90000,   725.10000
    730.94,  2806.10000,   730.70000
    731.41,  2792.40000,   725.60000
    731.87,  2772.10000,   721.80000
    732.33,  2756.90000,   708.70000
    732.79,  2795.10000,   691.40000
    733.25,  2794.40000,   700.10000
    733.71,  2810.00000,   702.50000
    734.17,  2823.30000,   703.60000
    734.63,  2793.00000,   710.90000
    735.09,  2767.10000,   710.40000
    735.55,  2765.60000,   700.20000
    736.01,  2753.90000,   695.00000
    736.47,  2772.10000,   686.70000
    736.94,  2786.40000,   680.70000
    737.40,  2795.30000,   687.50000
    737.86,  2794.90000,   692.80000
    738.32,  2798.60000,   698.50000
    738.78,  2806.70000,   703.90000
    739.24,  2799.20000,   710.40000
    739.70,  2791.50000,   716.60000
    740.16,  2814.90000,   717.00000
    740.62,  2827.30000,   705.90000
    741.08,  2845.40000,   698.60000
    741.54,  2838.10000,   688.70000
    742.00,  2821.10000,   682.60000
    742.46,  2783.30000,   693.10000
    742.92,  2758.30000,   697.20000
    743.38,  2757.50000,   700.20000
    743.84,  2758.30000,   702.60000
    744.30,  2775.00000,   699.30000
    744.76,  2787.40000,   704.20000
    745.22,  2780.30000,   709.40000
    745.68,  2765.10000,   705.70000
    746.14,  2761.30000,   702.00000
    746.60,  2774.50000,   690.50000
    747.06,  2792.00000,   687.60000
    747.52,  2773.40000,   693.80000
    747.98,  2785.10000,   696.40000
    748.44,  2783.30000,   701.70000
    748.90,  2775.60000,   707.00000
    749.36,  2782.80000,   710.60000
    749.82,  2795.20000,   715.30000
    750.28,  2802.80000,   710.10000
    750.74,  2828.30000,   706.90000
    751.20,  2830.70000,   699.70000
    751.66,  2812.50000,   695.80000
    752.12,  2788.90000,   691.40000
    752.58,  2786.20000,   701.90000
    753.04,  2801.00000,   708.10000
    753.50,  2829.30000,   708.60000
    753.96,  2809.40000,   709.40000
    754.42,  2777.60000,   701.60000
    754.88,  2760.60000,   688.80000
    755.34,  2761.60000,   685.00000
    755.80,  2793.50000,   682.80000
    756.26,  2813.10000,   675.60000
    756.72,  2807.80000,   686.70000
    757.18,  2808.20000,   686.20000
    757.64,  2795.30000,   702.50000
    758.10,  2764.90000,   704.80000
    758.56,  2745.50000,   712.30000
    759.02,  2754.20000,   700.50000
    759.48,  2760.10000,   697.10000
    759.94,  2784.60000,   685.10000
    760.40,  2790.70000,   681.30000
    760.86,  2783.70000,   682.50000
    761.32,  2781.50000,   694.00000
    761.78,  2813.70000,   690.40000
    762.24,  2790.30000,   691.10000
    762.70,  2794.30000,   692.10000
    763.15,  2783.90000,   684.90000
    763.61,  2785.10000,   693.60000
    764.07,  2795.40000,   702.40000
    764.53,  2798.70000,   709.00000
    764.99,  2803.50000,   700.70000
    765.45,  2820.50000,   700.70000
    765.91,  2804.80000,   700.30000
    766.37,  2788.70000,   701.50000
    766.83,  2759.00000,   707.00000
    767.29,  2760.00000,   706.30000
    767.75,  2773.30000,   695.70000
    768.21,  2792.90000,   686.60000
    768.66,  2809.50000,   675.40000
    769.12,  2817.30000,   670.40000
    769.58,  2784.50000,   682.30000
    770.04,  2776.80000,   687.20000
    770.50,  2743.60000,   706.30000
    770.96,  2732.10000,   708.30000
    771.42,  2767.40000,   702.00000
    771.88,  2782.20000,   704.10000
    772.34,  2780.10000,   706.20000
    772.80,  2770.30000,   707.10000
    773.25,  2749.20000,   704.50000
    773.71,  2744.00000,   708.10000
    774.17,  2738.10000,   702.30000
    774.63,  2748.90000,   707.70000
    775.09,  2756.90000,   711.00000
    775.55,  2746.50000,   722.60000
    776.01,  2732.00000,   713.00000
    776.47,  2740.10000,   714.60000
    776.92,  2722.80000,   704.30000
    777.38,  2750.50000,   695.40000
    777.84,  2753.80000,   699.60000
    778.30,  2750.30000,   695.90000
    778.76,  2737.40000,   697.30000
    779.22,  2765.40000,   692.60000
    779.68,  2774.00000,   688.00000
    780.13,  2783.40000,   688.90000
    780.59,  2762.90000,   696.60000
    781.05,  2739.80000,   697.70000
    781.51,  2737.00000,   708.10000
    781.97,  2755.90000,   708.10000
    782.43,  2770.60000,   702.40000
    782.88,  2788.30000,   708.60000
    783.34,  2783.10000,   707.30000
    783.80,  2775.70000,   714.50000
    784.26,  2798.50000,   699.00000
    784.72,  2782.50000,   698.80000
    785.18,  2769.80000,   692.90000
    785.63,  2759.20000,   694.10000
    786.09,  2779.30000,   696.60000
    786.55,  2812.00000,   701.90000
    787.01,  2837.00000,   695.40000
    787.47,  2808.50000,   698.40000
    787.92,  2769.80000,   704.30000
    788.38,  2738.90000,   693.80000
    788.84,  2730.60000,   698.50000
    789.30,  2750.80000,   697.30000
    789.76,  2761.70000,   705.90000
    790.21,  2765.50000,   701.20000
    790.67,  2745.70000,   713.00000
    791.13,  2745.40000,   707.00000
    791.59,  2724.10000,   707.80000
    792.05,  2728.10000,   697.30000
    792.50,  2746.00000,   696.50000
    792.96,  2775.10000,   683.20000
    793.42,  2748.60000,   690.70000
    793.88,  2757.90000,   697.80000
    794.33,  2733.40000,   703.00000
    794.79,  2728.20000,   708.70000
    795.25,  2738.60000,   704.80000
    795.71,  2758.30000,   695.90000
    796.17,  2758.40000,   697.80000
    796.62,  2766.10000,   690.90000
    797.08,  2740.50000,   690.40000
    797.54,  2737.40000,   698.30000
    798.00,  2732.80000,   691.40000
    798.45,  2742.70000,   690.70000
    798.91,  2751.50000,   692.40000
    799.37,  2763.50000,   681.50000
    799.83,  2758.20000,   675.30000
    800.28,  2742.30000,   681.60000
    800.74,  2733.90000,   685.10000
    801.20,  2754.70000,   682.00000
    801.66,  2736.10000,   686.10000
    802.11,  2745.20000,   693.40000
    802.57,  2754.90000,   700.30000
    803.03,  2729.70000,   706.10000
    803.48,  2712.40000,   705.40000
    803.94,  2777.20000,   684.30000
    804.40,  2797.50000,   667.70000
    804.86,  2821.20000,   662.70000
    805.31,  2811.30000,   662.80000
    805.77,  2762.80000,   673.00000
    806.23,  2698.70000,   687.70000
    806.69,  2727.00000,   691.80000
    807.14,  2732.50000,   684.00000
    807.60,  2756.20000,   680.70000
    808.06,  2769.60000,   672.10000
    808.51,  2772.30000,   673.10000
    808.97,  2734.60000,   682.80000
    809.43,  2732.20000,   691.80000
    809.88,  2722.10000,   697.40000
    810.34,  2717.60000,   698.40000
    810.80,  2748.70000,   690.20000
    811.26,  2773.40000,   679.20000
    811.71,  2758.10000,   677.60000
    812.17,  2770.80000,   674.10000
    812.63,  2749.80000,   688.00000
    813.08,  2718.20000,   685.40000
    813.54,  2726.50000,   684.30000
    814.00,  2740.60000,   680.50000
    814.45,  2744.80000,   675.10000
    814.91,  2763.40000,   669.80000
    815.37,  2746.00000,   679.70000
    815.82,  2735.40000,   670.20000
    816.28,  2724.30000,   669.50000
    816.74,  2728.30000,   667.60000
    817.19,  2701.40000,   663.80000
    817.65,  2712.00000,   665.60000
    818.11,  2738.60000,   662.30000
    818.56,  2752.90000,   661.10000
    819.02,  2741.70000,   668.70000
    819.48,  2744.70000,   671.50000
    819.93,  2699.60000,   677.60000
    820.39,  2715.50000,   679.00000
    820.84,  2749.80000,   666.70000
    821.30,  2767.80000,   664.10000
    821.76,  2771.60000,   662.20000
    822.21,  2782.00000,   655.40000
    822.67,  2756.10000,   661.00000
    823.13,  2714.70000,   664.60000
    823.58,  2744.60000,   667.20000
    824.04,  2765.80000,   669.50000
    824.49,  2767.00000,   667.00000
    824.95,  2782.40000,   655.40000
    825.41,  2777.30000,   660.80000
    825.86,  2744.70000,   661.20000
    826.32,  2781.50000,   657.70000
    826.78,  2766.30000,   656.50000
    827.23,  2741.00000,   655.10000
    827.69,  2722.40000,   649.10000
    828.14,  2719.90000,   650.80000
    828.60,  2738.90000,   650.70000
    829.06,  2767.80000,   641.20000
    829.51,  2760.70000,   641.70000
    829.97,  2762.00000,   647.60000
    830.42,  2754.80000,   655.10000
    830.88,  2741.30000,   649.80000
    831.34,  2745.40000,   642.30000
    831.79,  2770.10000,   626.50000
    832.25,  2775.20000,   617.50000
    832.70,  2768.40000,   616.30000
    833.16,  2765.60000,   630.30000
    833.61,  2748.90000,   638.00000
    834.07,  2749.00000,   640.90000
    834.53,  2746.70000,   642.80000
    834.98,  2738.40000,   642.80000
    835.44,  2718.10000,   642.90000
    835.89,  2730.60000,   640.60000
    836.35,  2746.50000,   633.50000
    836.80,  2778.20000,   627.00000
    837.26,  2761.20000,   629.10000
    837.71,  2739.00000,   624.60000
    838.17,  2720.50000,   625.30000
    838.63,  2713.90000,   627.10000
    839.08,  2709.50000,   622.90000
    839.54,  2729.80000,   629.20000
    839.99,  2722.70000,   640.40000
    840.45,  2743.30000,   632.70000
    840.90,  2767.90000,   626.60000
    841.36,  2775.40000,   630.20000
    841.81,  2763.20000,   623.00000
    842.27,  2749.80000,   623.20000
    842.72,  2724.60000,   626.10000
    843.18,  2731.20000,   619.70000
    843.63,  2716.00000,   619.50000
    844.09,  2713.60000,   623.50000
    844.55,  2705.60000,   626.00000
    845.00,  2704.20000,   616.70000
    845.46,  2718.70000,   606.80000
    845.91,  2737.40000,   602.80000
    846.37,  2749.20000,   613.00000
    846.82,  2766.40000,   620.90000
    847.28,  2769.30000,   622.30000
    847.73,  2722.60000,   608.90000
    848.19,  2748.40000,   606.20000
    848.64,  2759.20000,   610.20000
    849.10,  2784.30000,   613.00000
    849.55,  2783.40000,   623.40000
    850.01,  2765.70000,   626.30000
    850.46,  2712.20000,   618.30000
    850.92,  2740.50000,   624.30000
    851.37,  2747.60000,   619.90000
    851.83,  2753.70000,   606.00000
    852.28,  2753.40000,   606.70000
    852.73,  2729.10000,   609.90000
    853.19,  2697.80000,   617.20000
    853.64,  2702.30000,   623.10000
    854.10,  2705.30000,   625.80000
    854.55,  2717.40000,   610.90000
    855.01,  2734.30000,   603.40000
    855.46,  2712.70000,   600.70000
    855.92,  2697.60000,   605.30000
    856.37,  2696.00000,   608.60000
    856.83,  2693.20000,   615.40000
    857.28,  2724.20000,   603.10000
    857.74,  2730.10000,   602.80000
    858.19,  2722.30000,   613.00000
    858.64,  2733.10000,   620.90000
    859.10,  2721.70000,   621.20000
    859.55,  2704.80000,   611.90000
    860.01,  2761.70000,   606.30000
    860.46,  2785.00000,   604.80000
    860.92,  2780.20000,   606.60000
    861.37,  2771.60000,   616.10000
    861.83,  2765.80000,   598.40000
    862.28,  2737.20000,   597.80000
    862.73,  2758.70000,   590.90000
    863.19,  2749.50000,   594.10000
    863.64,  2724.60000,   602.30000
    864.10,  2711.30000,   609.30000
    864.55,  2732.40000,   603.20000
    865.01,  2728.50000,   612.80000
    865.46,  2749.10000,   606.00000
    865.91,  2734.10000,   607.60000
    866.37,  2724.50000,   601.50000
    866.82,  2718.10000,   598.10000
    867.28,  2707.00000,   606.20000
    867.73,  2699.80000,   605.10000
    868.18,  2728.40000,   608.80000
    868.64,  2731.60000,   608.50000
    869.09,  2757.90000,   606.40000
    869.55,  2767.60000,   617.00000
    870.00,  2749.50000,   631.70000
    870.45,  2736.20000,   624.10000
    870.91,  2706.80000,   624.90000
    871.36,  2679.50000,   626.80000
    871.81,  2702.50000,   627.50000
    872.27,  2731.70000,   630.20000
    872.72,  2742.30000,   623.40000
    873.18,  2737.80000,   618.80000
    873.63,  2710.30000,   621.40000
    874.08,  2700.20000,   626.60000
    874.54,  2715.20000,   622.50000
    874.99,  2715.10000,   631.50000
    875.44,  2693.80000,   622.00000
    875.90,  2667.00000,   633.10000
    876.35,  2669.10000,   630.70000
    876.81,  2709.20000,   625.00000
    877.26,  2744.40000,   617.10000
    877.71,  2735.80000,   620.40000
    878.17,  2711.20000,   615.00000
    878.62,  2727.60000,   622.20000
    879.07,  2749.00000,   620.90000
    879.53,  2775.80000,   612.70000
    879.98,  2763.90000,   616.30000
    880.43,  2745.60000,   616.40000
    880.89,  2725.00000,   619.40000
    881.34,  2728.50000,   617.20000
    881.79,  2743.40000,   617.70000
    882.25,  2736.40000,   620.30000
    882.70,  2708.20000,   636.20000
    883.15,  2696.10000,   634.90000
    883.61,  2711.70000,   630.70000
    884.06,  2703.00000,   611.00000
    884.51,  2726.30000,   605.70000
    884.97,  2715.10000,   605.30000
    885.42,  2726.80000,   608.10000
    885.87,  2718.90000,   616.80000
    886.32,  2735.80000,   619.90000
    886.78,  2711.30000,   613.70000
    887.23,  2714.00000,   622.10000
    887.68,  2707.10000,   620.00000
    888.14,  2714.20000,   618.70000
    888.59,  2693.30000,   634.30000
    889.04,  2678.20000,   629.60000
    889.50,  2651.00000,   623.40000
    889.95,  2677.60000,   622.00000
    890.40,  2715.10000,   611.60000
    890.85,  2733.40000,   610.50000
    891.31,  2718.90000,   621.10000
    891.76,  2715.20000,   621.40000
    892.21,  2694.00000,   629.50000
    892.67,  2710.80000,   637.60000
    893.12,  2710.30000,   631.90000
    893.57,  2721.30000,   626.70000
    894.02,  2728.10000,   620.10000
    894.48,  2748.50000,   624.40000
    894.93,  2747.50000,   623.40000
    895.38,  2749.90000,   624.40000
    895.83,  2722.30000,   621.90000
    896.29,  2717.80000,   622.40000
    896.74,  2715.50000,   621.50000
    897.19,  2732.70000,   632.00000
    897.64,  2743.60000,   628.60000
    898.10,  2750.40000,   619.90000
    898.55,  2727.40000,   616.10000
    899.00,  2718.50000,   614.10000
    899.45,  2685.20000,   619.20000
    899.91,  2674.60000,   626.80000
    900.36,  2655.10000,   633.20000
    900.81,  2692.80000,   627.40000
    901.26,  2710.20000,   628.20000
    901.72,  2736.80000,   625.70000
    902.17,  2728.70000,   625.10000
    902.62,  2732.50000,   633.40000
    903.07,  2693.60000,   641.20000
    903.52,  2703.60000,   642.10000
    903.98,  2702.70000,   643.30000
    904.43,  2711.70000,   642.60000
    904.88,  2703.30000,   641.10000
    905.33,  2708.90000,   648.30000
    905.79,  2689.70000,   649.80000
    906.24,  2697.90000,   651.10000
    906.69,  2711.00000,   652.40000
    907.14,  2711.80000,   657.40000
    907.59,  2690.40000,   660.50000
    908.05,  2675.80000,   664.30000
    908.50,  2657.50000,   661.70000
    908.95,  2669.70000,   662.90000
    909.40,  2680.80000,   660.00000
    909.85,  2677.60000,   653.80000
    910.31,  2685.00000,   646.40000
    910.76,  2667.70000,   653.10000
    911.21,  2653.10000,   658.50000
    911.66,  2652.50000,   673.00000
    912.11,  2651.50000,   675.80000
    912.56,  2680.10000,   672.50000
    913.02,  2703.10000,   679.90000
    913.47,  2695.70000,   685.20000
    913.92,  2695.70000,   686.00000
    914.37,  2684.10000,   693.00000
    914.82,  2680.90000,   700.20000
    915.27,  2697.60000,   705.40000
    915.73,  2716.30000,   720.60000
    916.18,  2705.00000,   724.20000
    916.63,  2693.10000,   732.90000
    917.08,  2657.90000,   742.30000
    917.53,  2686.60000,   754.50000
    917.98,  2571.60000,   762.90000
    918.44,  2917.60000,   770.40000
    918.89,  3100.20000,   775.40000
    919.34,  3153.50000,   787.00000
    919.79,  3064.60000,   791.10000
    920.24,  2900.60000,   800.80000
    920.69,  2584.00000,   812.30000
    921.14,  2716.20000,   830.30000
    921.59,  2708.80000,   845.70000
    922.05,  2695.40000,   874.40000
    922.50,  2690.30000,   896.70000
    922.95,  2704.30000,   928.10000
    923.40,  2723.80000,   965.70000
    923.85,  2739.50000,  1007.20000
    924.30,  2747.60000,  1057.10000
    924.75,  2733.80000,  1120.20000
    925.20,  2713.60000,  1204.40000
    925.66,  2695.30000,  1303.70000
    926.11,  2691.20000,  1436.50000
    926.56,  2701.20000,  1588.30000
    927.01,  2718.70000,  1772.60000
    927.46,  2711.90000,  1989.80000
    927.91,  2675.40000,  2236.00000
    928.36,  2645.60000,  2480.80000
    928.81,  2653.80000,  2750.60000
    929.26,  2673.20000,  3022.00000
    929.71,  2707.70000,  3334.30000
    930.16,  2735.50000,  3697.60000
    930.62,  2713.80000,  4075.90000
    931.07,  2701.10000,  4427.00000
    931.52,  2694.80000,  4755.30000
    931.97,  2704.70000,  5033.30000
    932.42,  2709.90000,  5311.00000
    932.87,  2726.90000,  5583.00000
    933.32,  2707.10000,  5829.40000
    933.77,  2722.30000,  6034.30000
    934.22,  2721.90000,  6194.80000
    934.67,  2738.30000,  6317.10000
    935.12,  2727.80000,  6427.30000
    935.57,  2703.10000,  6545.70000
    936.02,  2661.70000,  6631.40000
    936.47,  2671.20000,  6657.60000
    936.93,  2655.40000,  6622.80000
    937.38,  2656.60000,  6583.10000
    937.83,  2675.50000,  6584.80000
    938.28,  2676.10000,  6670.50000
    938.73,  2670.40000,  6786.40000
    939.18,  2689.70000,  6863.70000
    939.63,  2692.90000,  6926.10000
    940.08,  2710.30000,  7034.50000
    940.53,  2730.00000,  7240.20000
    940.98,  2722.90000,  7503.60000
    941.43,  2690.00000,  7756.40000
    941.88,  2683.50000,  7938.80000
    942.33,  2690.10000,  8068.80000
    942.78,  2696.00000,  8169.40000
    943.23,  2708.10000,  8244.50000
    943.68,  2711.60000,  8277.10000
    944.13,  2713.70000,  8281.20000
    944.58,  2729.20000,  8283.40000
    945.03,  2726.70000,  8344.20000
    945.48,  2694.40000,  8408.10000
    945.93,  2686.10000,  8427.70000
    946.38,  2688.20000,  8440.40000
    946.83,  2716.00000,  8456.80000
    947.28,  2729.10000,  8491.10000
    947.73,  2729.50000,  8569.50000
    948.18,  2700.80000,  8626.20000
    948.63,  2688.00000,  8654.50000
    949.08,  2683.60000,  8692.40000
    949.53,  2675.40000,  8729.40000
    949.98,  2656.40000,  8705.90000
    950.43,  2668.30000,  8693.50000
    950.88,  2676.90000,  8676.00000
    951.33,  2696.60000,  8618.60000
    951.78,  2723.90000,  8600.30000
    952.23,  2725.90000,  8558.90000
    952.68,  2701.20000,  8409.60000
    953.13,  2706.40000,  8270.70000
    953.58,  2710.20000,  8145.80000
    954.03,  2703.50000,  8029.90000
    954.48,  2686.30000,  7984.70000
    954.93,  2674.20000,  7975.30000
    955.38,  2658.90000,  7937.80000
    955.83,  2669.80000,  7847.70000
    956.28,  2674.70000,  7769.10000
    956.73,  2695.70000,  7656.10000
    957.18,  2697.60000,  7469.20000
    957.62,  2688.30000,  7288.30000
    958.07,  2698.90000,  7077.60000
    958.52,  2686.30000,  6832.40000
    958.97,  2672.60000,  6650.10000
    959.42,  2676.00000,  6506.60000
    959.87,  2673.70000,  6331.50000
    960.32,  2677.20000,  6221.10000
    960.77,  2710.00000,  6106.80000
    961.22,  2750.70000,  5985.80000
    961.67,  2767.20000,  5863.40000
    962.12,  2742.50000,  5679.60000
    962.57,  2714.40000,  5425.50000
    963.02,  2708.60000,  5194.00000
    963.47,  2686.70000,  4977.70000
    963.92,  2706.70000,  4807.80000
    964.36,  2710.60000,  4708.80000
    964.81,  2699.20000,  4640.90000
    965.26,  2705.20000,  4574.40000
    965.71,  2711.10000,  4542.00000
    966.16,  2697.60000,  4503.10000
    966.61,  2688.60000,  4447.90000
    967.06,  2679.90000,  4394.50000
    967.51,  2693.60000,  4341.70000
    967.96,  2707.50000,  4227.10000
    968.41,  2713.00000,  4107.90000
    968.85,  2715.60000,  3966.30000
    969.30,  2701.30000,  3818.50000
    969.75,  2711.90000,  3677.70000
    970.20,  2714.20000,  3536.10000
    970.65,  2717.80000,  3381.40000
    971.10,  2708.70000,  3219.00000
    971.55,  2708.30000,  3065.30000
    972.00,  2690.10000,  2924.30000
    972.44,  2679.00000,  2801.70000
    972.89,  2692.10000,  2688.30000
    973.34,  2708.00000,  2715.80000
    973.79,  2711.50000,  2711.20000
    974.24,  2723.30000,  2654.30000
    974.69,  2700.70000,  2540.10000
    975.14,  2663.20000,  2377.20000
    975.59,  2667.90000,  2220.90000
    976.03,  2656.30000,  2218.20000
    976.48,  2654.70000,  2218.30000
    976.93,  2658.90000,  2232.00000
    977.38,  2660.80000,  2247.10000
    977.83,  2648.00000,  2254.30000
    978.28,  2661.80000,  2248.70000
    978.72,  2676.00000,  2229.90000
    979.17,  2697.60000,  2209.60000
    979.62,  2710.60000,  2186.50000
    980.07,  2717.20000,  2168.30000
    980.52,  2700.10000,  2154.50000
    980.97,  2674.80000,  2160.20000
    981.41,  2644.30000,  2178.20000
    981.86,  2634.80000,  2209.50000
    982.31,  2655.80000,  2230.60000
    982.76,  2670.20000,  2255.10000
    983.21,  2694.20000,  2248.00000
    983.66,  2684.50000,  2228.10000
    984.10,  2652.30000,  2178.30000
    984.55,  2639.60000,  2107.50000
    985.00,  2630.10000,  2017.30000
    985.45,  2611.80000,  1928.20000
    985.90,  2627.60000,  1854.20000
    986.34,  2653.20000,  1784.00000
    986.79,  2648.20000,  1728.90000
    987.24,  2659.80000,  1677.50000
    987.69,  2636.00000,  1629.40000
    988.14,  2629.90000,  1574.00000
    988.58,  2642.00000,  1531.90000
    989.03,  2666.20000,  1476.30000
    989.48,  2670.80000,  1423.60000
    989.93,  2672.20000,  1362.10000
    990.38,  2645.90000,  1314.00000
    990.82,  2652.90000,  1270.00000
    991.27,  2667.50000,  1226.90000
    991.72,  2690.40000,  1204.30000
    992.17,  2679.10000,  1179.00000
    992.61,  2680.00000,  1161.80000
    993.06,  2654.10000,  1143.20000
    993.51,  2679.40000,  1118.40000
    993.96,  2685.70000,  1079.20000
    994.41,  2677.70000,  1055.50000
    994.85,  2655.70000,  1034.90000
    995.30,  2663.60000,  1032.60000
    995.75,  2656.80000,  1021.70000
    996.20,  2695.80000,  1003.60000
    996.64,  2682.70000,   974.40000
    997.09,  2652.00000,   956.20000
    997.54,  2637.00000,   945.60000
    997.99,  2623.80000,   941.00000
    998.43,  2625.20000,   932.20000
    998.88,  2630.00000,   913.10000
    999.33,  2642.30000,   889.40000
    999.77,  2669.00000,   881.80000
   1000.22,  2691.10000,   875.10000
   1000.67,  2700.90000,   873.40000
   1001.12,  2703.70000,   867.00000
   1001.56,  2663.00000,   859.10000
   1002.01,  2642.60000,   849.50000
   1002.46,  2646.90000,   844.30000
   1002.91,  2632.60000,   838.80000
   1003.35,  2644.40000,   844.00000
   1003.80,  2640.80000,   838.50000
   1004.25,  2635.90000,   843.90000
   1004.69,  2645.90000,   826.30000
   1005.14,  2715.90000,   737.30000
   1005.59,  2762.60000,   684.70000
   1006.04,  2795.60000,   682.30000
   1006.48,  2780.50000,   712.70000
   1006.93,  2740.80000,   792.90000
   1007.38,  2677.10000,   840.70000
   1007.82,  2656.50000,   820.50000
   1008.27,  2635.90000,   820.10000
   1008.72,  2626.60000,   819.00000
   1009.16,  2629.80000,   812.10000
   1009.61,  2638.80000,   816.50000
   1010.06,  2644.00000,   802.90000
   1010.50,  2674.60000,   803.50000
   1010.95,  2702.10000,   802.00000
   1011.40,  2706.90000,   808.00000
   1011.85,  2683.40000,   812.60000
   1012.29,  2669.80000,   814.30000
   1012.74,  2639.00000,   819.70000
   1013.19,  2638.20000,   822.10000
   1013.63,  2682.50000,   809.40000
   1014.08,  2699.90000,   813.00000
   1014.53,  2692.70000,   814.90000
   1014.97,  2678.80000,   809.40000
   1015.42,  2645.00000,   819.40000
   1015.86,  2614.90000,   817.80000
   1016.31,  2643.90000,   806.40000
   1016.76,  2663.60000,   813.10000
   1017.20,  2656.40000,   807.90000
   1017.65,  2633.40000,   807.10000
   1018.10,  2632.90000,   808.00000
   1018.54,  2618.10000,   813.30000
   1018.99,  2642.60000,   815.90000
   1019.44,  2646.50000,   822.40000
   1019.88,  2640.70000,   819.60000
   1020.33,  2630.50000,   820.20000
   1020.78,  2644.20000,   803.70000
   1021.22,  2648.00000,   801.80000
   1021.67,  2656.00000,   803.10000
   1022.11,  2653.20000,   799.10000
   1022.56,  2653.50000,   813.20000
   1023.01,  2638.40000,   819.40000
   1023.45,  2631.70000,   806.30000
   1023.90,  2622.40000,   812.90000
   1024.34,  2614.90000,   812.80000
   1024.79,  2625.30000,   807.90000
   1025.24,  2643.20000,   814.20000
   1025.68,  2633.70000,   819.60000
   1026.13,  2636.70000,   819.10000
   1026.58,  2631.10000,   828.90000
   1027.02,  2651.10000,   828.50000
   1027.47,  2661.20000,   821.40000
   1027.91,  2664.10000,   815.20000
   1028.36,  2635.60000,   820.60000
   1028.80,  2626.70000,   819.00000
   1029.25,  2601.50000,   822.60000
   1029.70,  2606.90000,   827.80000
   1030.14,  2605.30000,   828.30000
   1030.59,  2604.60000,   831.30000
   1031.03,  2604.40000,   837.00000
   1031.48,  2624.90000,   829.90000
   1031.93,  2652.00000,   825.50000
   1032.37,  2678.20000,   826.00000
   1032.82,  2679.60000,   822.00000
   1033.26,  2683.60000,   826.70000
   1033.71,  2655.80000,   837.70000
   1034.15,  2643.60000,   844.90000
   1034.60,  2642.40000,   845.40000
   1035.05,  2652.40000,   844.90000
   1035.49,  2638.10000,   832.60000
   1035.94,  2640.40000,   833.90000
   1036.38,  2608.20000,   836.80000
   1036.83,  2594.10000,   836.00000
   1037.27,  2585.20000,   841.70000
   1037.72,  2587.70000,   842.30000
   1038.16,  2685.90000,   838.10000
   1038.61,  2761.20000,   841.20000
   1039.05,  2770.20000,   844.60000
   1039.50,  2762.20000,   836.50000
   1039.95,  2702.20000,   848.40000
   1040.39,  2623.90000,   858.40000
   1040.84,  2629.70000,   862.20000
   1041.28,  2632.90000,   863.90000
   1041.73,  2626.20000,   867.60000
   1042.17,  2640.10000,   848.90000
   1042.62,  2642.30000,   846.00000
   1043.06,  2642.90000,   854.20000
   1043.51,  2620.20000,   859.00000
   1043.95,  2637.00000,   857.60000
   1044.40,  2632.70000,   865.50000
   1044.84,  2624.20000,   859.40000
   1045.29,  2613.10000,   859.50000
   1045.73,  2614.70000,   865.90000
   1046.18,  2594.10000,   874.30000
   1046.62,  2595.40000,   871.50000
   1047.07,  2590.60000,   872.30000
   1047.51,  2575.50000,   877.50000
   1047.96,  2606.50000,   878.70000
   1048.40,  2653.00000,   881.30000
   1048.85,  2663.90000,   890.10000
   1049.29,  2653.50000,   889.70000
   1049.74,  2613.90000,   891.20000
   1050.18,  2579.90000,   887.60000
   1050.63,  2590.50000,   882.60000
   1051.07,  2604.20000,   877.80000
   1051.52,  2618.30000,   889.00000
   1051.96,  2607.00000,   897.40000
   1052.41,  2586.60000,   911.40000
   1052.85,  2588.90000,   906.10000
   1053.30,  2584.20000,   909.30000
   1053.74,  2588.30000,   903.00000
   1054.18,  2594.80000,   905.30000
   1054.63,  2579.70000,   908.50000
   1055.07,  2571.90000,   908.70000
   1055.52,  2567.60000,   907.40000
   1055.96,  2556.80000,   914.90000
   1056.41,  2550.00000,   919.00000
   1056.85,  2546.70000,   916.90000
   1057.30,  2547.00000,   925.00000
   1057.74,  2548.60000,   927.50000
   1058.18,  2542.40000,   937.40000
   1058.63,  2515.40000,   944.60000
   1059.07,  2515.90000,   948.00000
   1059.52,  2531.90000,   942.20000
   1059.96,  2539.30000,   944.10000
   1060.41,  2540.50000,   940.70000
   1060.85,  2543.00000,   938.50000
   1061.30,  2528.30000,   944.10000
   1061.74,  2528.00000,   939.90000
   1062.18,  2522.70000,   952.50000
   1062.63,  2504.60000,   958.90000
   1063.07,  2497.30000,   963.10000
   1063.52,  2501.20000,   957.00000
   1063.96,  2520.70000,   967.50000
   1064.40,  2526.20000,   965.10000
   1064.85,  2512.70000,   979.50000
   1065.29,  2492.60000,   977.80000
   1065.74,  2477.60000,   975.90000
   1066.18,  2453.10000,   963.70000
