2D Measure spectrum data V5.74

<< MEASURE 1 >>
Data count = 2048
Exposure time = 30000 msec
Average = 10
Inspected time = 2020/10/23 17:01

Wave-dcm-1,Dark spec.  ,Spectrum
    108.17,  2216.80000,   676.20000
    108.66,  2234.60000,   661.60000
    109.15,  2246.90000,   650.70000
    109.65,  2279.50000,   639.80000
    110.14,  2290.30000,   635.20000
    110.63,  2299.20000,   628.00000
    111.13,  2314.30000,   611.80000
    111.62,  2308.40000,   591.10000
    112.11,  2315.40000,   579.50000
    112.60,  2337.80000,   576.60000
    113.10,  2322.00000,   579.30000
    113.59,  2334.10000,   589.60000
    114.08,  2357.90000,   579.30000
    114.58,  2349.90000,   577.90000
    115.07,  2391.00000,   574.10000
    115.56,  2408.30000,   570.60000
    116.06,  2396.50000,   578.10000
    116.55,  2402.70000,   573.90000
    117.04,  2397.10000,   566.90000
    117.53,  2374.50000,   562.10000
    118.03,  2404.20000,   553.30000
    118.52,  2405.90000,   559.30000
    119.01,  2396.40000,   583.10000
    119.51,  2488.20000,   594.10000
    120.00,  2572.80000,   605.90000
    120.49,  2606.10000,   610.90000
    120.98,  2606.80000,   610.00000
    121.48,  2527.80000,   610.40000
    121.97,  2423.40000,   627.40000
    122.46,  2412.20000,   639.10000
    122.95,  2434.60000,   642.20000
    123.45,  2465.90000,   656.60000
    123.94,  2474.50000,   664.80000
    124.43,  2501.00000,   666.30000
    124.92,  2538.60000,   668.30000
    125.42,  2538.30000,   676.20000
    125.91,  2551.80000,   687.80000
    126.40,  2542.90000,   697.00000
    126.89,  2520.70000,   710.90000
    127.39,  2505.50000,   725.70000
    127.88,  2498.70000,   736.20000
    128.37,  2491.20000,   751.90000
    128.86,  2516.70000,   754.90000
    129.35,  2521.20000,   740.10000
    129.85,  2538.00000,   735.00000
    130.34,  2523.60000,   741.60000
    130.83,  2519.30000,   757.40000
    131.32,  2519.80000,   778.70000
    131.81,  2528.80000,   788.60000
    132.31,  2530.80000,   798.20000
    132.80,  2532.20000,   799.20000
    133.29,  2512.10000,   802.90000
    133.78,  2520.60000,   804.10000
    134.27,  2537.70000,   811.30000
    134.77,  2548.20000,   816.10000
    135.26,  2573.20000,   827.40000
    135.75,  2571.60000,   828.10000
    136.24,  2586.40000,   833.70000
    136.73,  2572.20000,   836.30000
    137.23,  2589.70000,   831.10000
    137.72,  2581.00000,   831.20000
    138.21,  2578.20000,   839.50000
    138.70,  2566.50000,   842.60000
    139.19,  2603.10000,   853.60000
    139.68,  2586.50000,   869.40000
    140.18,  2592.60000,   869.70000
    140.67,  2600.60000,   874.40000
    141.16,  2599.30000,   880.10000
    141.65,  2587.70000,   880.20000
    142.14,  2587.10000,   885.40000
    142.63,  2603.60000,   898.00000
    143.13,  2602.80000,   908.60000
    143.62,  2642.20000,   914.20000
    144.11,  2641.10000,   923.50000
    144.60,  2599.90000,   935.10000
    145.09,  2586.60000,   939.70000
    145.58,  2645.80000,   947.90000
    146.07,  2661.80000,   959.70000
    146.56,  2678.70000,   966.00000
    147.06,  2671.20000,   968.40000
    147.55,  2635.00000,   975.60000
    148.04,  2596.10000,   982.30000
    148.53,  2622.50000,   999.00000
    149.02,  2593.80000,  1018.00000
    149.51,  2663.00000,  1031.70000
    150.00,  2722.30000,  1036.90000
    150.49,  2753.50000,  1038.30000
    150.99,  2754.40000,  1052.70000
    151.48,  2731.00000,  1070.20000
    151.97,  2647.30000,  1099.70000
    152.46,  2650.00000,  1126.80000
    152.95,  2627.70000,  1150.70000
    153.44,  2627.50000,  1168.60000
    153.93,  2645.30000,  1182.40000
    154.42,  2665.90000,  1193.40000
    154.91,  2648.60000,  1214.70000
    155.40,  2644.30000,  1228.60000
    155.89,  2634.20000,  1226.60000
    156.39,  2648.50000,  1244.40000
    156.88,  2615.30000,  1268.50000
    157.37,  2616.60000,  1292.50000
    157.86,  2618.20000,  1311.90000
    158.35,  2633.40000,  1319.20000
    158.84,  2659.10000,  1309.30000
    159.33,  2706.90000,  1325.40000
    159.82,  2707.90000,  1355.20000
    160.31,  2718.10000,  1389.00000
    160.80,  2750.40000,  1418.40000
    161.29,  2707.80000,  1430.90000
    161.78,  2683.20000,  1438.80000
    162.27,  2656.30000,  1449.60000
    162.76,  2652.70000,  1460.40000
    163.25,  2659.10000,  1486.20000
    163.74,  2685.30000,  1515.80000
    164.23,  2689.80000,  1524.90000
    164.72,  2720.30000,  1535.60000
    165.21,  2696.20000,  1542.30000
    165.70,  2679.80000,  1545.90000
    166.20,  2709.80000,  1568.20000
    166.69,  2724.90000,  1592.80000
    167.18,  2739.80000,  1615.20000
    167.67,  2740.70000,  1642.30000
    168.16,  2714.20000,  1659.80000
    168.65,  2667.30000,  1660.60000
    169.14,  2698.70000,  1671.80000
    169.63,  2696.70000,  1676.00000
    170.12,  2687.40000,  1685.70000
    170.61,  2675.50000,  1694.80000
    171.10,  2724.90000,  1692.60000
    171.59,  2720.20000,  1673.80000
    172.08,  2741.20000,  1657.50000
    172.57,  2744.10000,  1643.50000
    173.06,  2741.00000,  1644.30000
    173.55,  2723.80000,  1641.20000
    174.04,  2705.10000,  1649.60000
    174.53,  2694.50000,  1643.50000
    175.02,  2685.60000,  1653.10000
    175.50,  2715.40000,  1666.20000
    175.99,  2748.50000,  1678.50000
    176.48,  2781.00000,  1678.40000
    176.97,  2763.10000,  1685.00000
    177.46,  2764.60000,  1669.90000
    177.95,  2724.70000,  1680.10000
    178.44,  2700.10000,  1689.30000
    178.93,  2681.00000,  1684.10000
    179.42,  2702.60000,  1669.50000
    179.91,  2722.40000,  1648.30000
    180.40,  2737.30000,  1624.70000
    180.89,  2742.70000,  1626.80000
    181.38,  2723.60000,  1636.80000
    181.87,  2714.40000,  1649.00000
    182.36,  2710.00000,  1661.80000
    182.85,  2686.20000,  1665.00000
    183.34,  2712.90000,  1662.60000
    183.83,  2722.50000,  1663.20000
    184.32,  2717.20000,  1660.70000
    184.81,  2756.00000,  1658.50000
    185.29,  2755.70000,  1655.40000
    185.78,  2724.90000,  1649.40000
    186.27,  2740.40000,  1648.40000
    186.76,  2724.80000,  1651.50000
    187.25,  2696.80000,  1646.90000
    187.74,  2761.70000,  1643.20000
    188.23,  2787.60000,  1636.80000
    188.72,  2808.90000,  1622.00000
    189.21,  2805.90000,  1617.30000
    189.70,  2775.80000,  1624.90000
    190.19,  2745.50000,  1624.60000
    190.67,  2735.20000,  1625.80000
    191.16,  2731.30000,  1624.60000
    191.65,  2731.00000,  1619.20000
    192.14,  2713.00000,  1619.70000
    192.63,  2737.20000,  1627.30000
    193.12,  2747.00000,  1636.10000
    193.61,  2733.70000,  1645.50000
    194.10,  2750.00000,  1647.90000
    194.59,  2742.10000,  1650.90000
    195.07,  2735.20000,  1656.20000
    195.56,  2754.00000,  1645.30000
    196.05,  2732.90000,  1636.30000
    196.54,  2722.80000,  1635.70000
    197.03,  2740.00000,  1638.40000
    197.52,  2778.00000,  1646.10000
    198.01,  2786.40000,  1660.90000
    198.49,  2790.00000,  1654.40000
    198.98,  2781.20000,  1648.40000
    199.47,  2743.10000,  1635.60000
    199.96,  2730.10000,  1634.50000
    200.45,  2744.50000,  1631.40000
    200.94,  2723.60000,  1633.30000
    201.43,  2727.70000,  1625.00000
    201.91,  2720.50000,  1614.30000
    202.40,  2712.60000,  1604.20000
    202.89,  2715.40000,  1599.40000
    203.38,  2738.20000,  1598.50000
    203.87,  2737.70000,  1604.10000
    204.36,  2726.60000,  1607.80000
    204.84,  2725.10000,  1601.60000
    205.33,  2740.30000,  1600.40000
    205.82,  2754.20000,  1597.80000
    206.31,  2752.00000,  1599.60000
    206.80,  2745.90000,  1604.80000
    207.28,  2750.80000,  1601.70000
    207.77,  2760.30000,  1601.50000
    208.26,  2776.10000,  1601.40000
    208.75,  2788.90000,  1597.10000
    209.24,  2770.30000,  1598.10000
    209.72,  2777.70000,  1594.60000
    210.21,  2787.60000,  1580.60000
    210.70,  2759.60000,  1592.40000
    211.19,  2770.10000,  1598.50000
    211.68,  2781.80000,  1598.20000
    212.16,  2786.90000,  1609.90000
    212.65,  2791.10000,  1615.30000
    213.14,  2781.30000,  1616.40000
    213.63,  2766.50000,  1624.30000
    214.12,  2744.50000,  1623.30000
    214.60,  2759.10000,  1619.00000
    215.09,  2778.00000,  1626.40000
    215.58,  2776.30000,  1634.60000
    216.07,  2775.90000,  1642.30000
    216.55,  2779.20000,  1639.30000
    217.04,  2711.10000,  1647.20000
    217.53,  2707.40000,  1645.40000
    218.02,  2706.90000,  1655.30000
    218.50,  2723.60000,  1658.10000
    218.99,  2748.70000,  1662.30000
    219.48,  2773.00000,  1673.90000
    219.97,  2736.20000,  1686.90000
    220.45,  2745.20000,  1698.40000
    220.94,  2736.60000,  1713.00000
    221.43,  2752.90000,  1725.90000
    221.92,  2775.20000,  1738.30000
    222.40,  2772.00000,  1762.00000
    222.89,  2760.60000,  1775.20000
    223.38,  2781.60000,  1800.40000
    223.86,  2793.00000,  1824.70000
    224.35,  2813.30000,  1852.90000
    224.84,  2816.10000,  1872.20000
    225.33,  2801.00000,  1895.50000
    225.81,  2771.30000,  1905.00000
    226.30,  2755.20000,  1922.60000
    226.79,  2749.90000,  1937.60000
    227.27,  2742.30000,  1944.00000
    227.76,  2748.00000,  1951.10000
    228.25,  2777.10000,  1957.20000
    228.74,  2790.50000,  1966.20000
    229.22,  2806.30000,  1988.30000
    229.71,  2794.00000,  2004.40000
    230.20,  2774.20000,  2004.70000
    230.68,  2770.60000,  1993.30000
    231.17,  2759.80000,  1974.00000
    231.66,  2735.20000,  1961.40000
    232.14,  2732.90000,  1944.00000
    232.63,  2723.40000,  1920.80000
    233.12,  2746.60000,  1900.90000
    233.60,  2773.10000,  1865.50000
    234.09,  2753.80000,  1835.50000
    234.58,  2742.30000,  1802.00000
    235.06,  2743.00000,  1773.20000
    235.55,  2737.70000,  1739.70000
    236.04,  2732.30000,  1725.20000
    236.52,  2755.00000,  1696.50000
    237.01,  2736.80000,  1682.10000
    237.50,  2772.20000,  1654.50000
    237.98,  2762.90000,  1638.90000
    238.47,  2815.40000,  1613.50000
    238.96,  2824.20000,  1596.00000
    239.44,  2822.80000,  1575.30000
    239.93,  2813.70000,  1578.80000
    240.41,  2770.60000,  1570.60000
    240.90,  2700.90000,  1563.90000
    241.39,  2720.50000,  1555.40000
    241.87,  2764.00000,  1540.10000
    242.36,  2794.70000,  1520.80000
    242.85,  2838.50000,  1521.00000
    243.33,  2828.00000,  1525.40000
    243.82,  2799.20000,  1523.40000
    244.30,  2766.90000,  1533.60000
    244.79,  2778.80000,  1521.70000
    245.28,  2771.40000,  1508.20000
    245.76,  2766.00000,  1503.80000
    246.25,  2747.00000,  1508.60000
    246.74,  2761.10000,  1515.50000
    247.22,  2786.30000,  1526.90000
    247.71,  2789.60000,  1512.60000
    248.19,  2777.00000,  1508.80000
    248.68,  2771.20000,  1499.60000
    249.16,  2739.80000,  1489.10000
    249.65,  2775.50000,  1491.90000
    250.14,  2791.80000,  1500.40000
    250.62,  2766.50000,  1499.80000
    251.11,  2737.10000,  1500.90000
    251.59,  2711.60000,  1498.50000
    252.08,  2702.00000,  1488.00000
    252.57,  2726.10000,  1481.70000
    253.05,  2736.50000,  1487.20000
    253.54,  2773.30000,  1484.80000
    254.02,  2801.20000,  1484.00000
    254.51,  2802.10000,  1483.00000
    254.99,  2797.40000,  1482.20000
    255.48,  2771.70000,  1480.40000
    255.96,  2747.80000,  1475.70000
    256.45,  2775.10000,  1461.50000
    256.94,  2784.90000,  1453.40000
    257.42,  2780.00000,  1437.00000
    257.91,  2788.00000,  1441.70000
    258.39,  2787.40000,  1446.50000
    258.88,  2769.40000,  1446.40000
    259.36,  2792.10000,  1440.90000
    259.85,  2789.80000,  1438.90000
    260.33,  2797.00000,  1439.20000
    260.82,  2812.60000,  1457.50000
    261.30,  2817.60000,  1459.30000
    261.79,  2781.80000,  1464.00000
    262.27,  2760.80000,  1455.60000
    262.76,  2750.00000,  1435.10000
    263.24,  2750.80000,  1429.60000
    263.73,  2781.00000,  1438.00000
    264.22,  2782.00000,  1443.80000
    264.70,  2849.10000,  1442.30000
    265.19,  2868.90000,  1436.80000
    265.67,  2870.00000,  1428.30000
    266.16,  2836.20000,  1427.40000
    266.64,  2815.00000,  1435.20000
    267.13,  2746.50000,  1442.80000
    267.61,  2758.80000,  1438.90000
    268.10,  2773.10000,  1445.10000
    268.58,  2770.00000,  1456.40000
    269.06,  2763.60000,  1461.90000
    269.55,  2786.30000,  1463.40000
    270.03,  2792.80000,  1456.20000
    270.52,  2793.30000,  1454.30000
    271.00,  2810.50000,  1458.80000
    271.49,  2807.90000,  1454.00000
    271.97,  2805.00000,  1458.10000
    272.46,  2811.50000,  1465.10000
    272.94,  2800.80000,  1479.60000
    273.43,  2788.20000,  1495.70000
    273.91,  2760.60000,  1511.50000
    274.40,  2747.40000,  1510.00000
    274.88,  2741.80000,  1504.60000
    275.37,  2757.00000,  1495.20000
    275.85,  2760.70000,  1497.90000
    276.33,  2770.80000,  1501.20000
    276.82,  2777.10000,  1510.10000
    277.30,  2779.20000,  1529.20000
    277.79,  2767.70000,  1539.60000
    278.27,  2781.80000,  1542.40000
    278.76,  2802.80000,  1543.00000
    279.24,  2812.40000,  1557.20000
    279.73,  2805.90000,  1564.70000
    280.21,  2793.30000,  1575.60000
    280.69,  2765.20000,  1582.90000
    281.18,  2768.80000,  1588.90000
    281.66,  2793.20000,  1586.60000
    282.15,  2830.80000,  1602.90000
    282.63,  2816.20000,  1619.00000
    283.11,  2805.60000,  1629.40000
    283.60,  2798.70000,  1649.70000
    284.08,  2811.70000,  1655.70000
    284.57,  2790.20000,  1657.30000
    285.05,  2794.30000,  1659.00000
    285.53,  2775.30000,  1664.40000
    286.02,  2753.80000,  1677.80000
    286.50,  2769.70000,  1705.30000
    286.99,  2788.40000,  1711.50000
    287.47,  2765.90000,  1734.40000
    287.95,  2760.40000,  1734.90000
    288.44,  2755.60000,  1733.90000
    288.92,  2750.30000,  1735.40000
    289.41,  2767.30000,  1738.60000
    289.89,  2796.80000,  1727.40000
    290.37,  2797.30000,  1740.10000
    290.86,  2821.40000,  1742.60000
    291.34,  2787.70000,  1746.30000
    291.82,  2773.60000,  1747.10000
    292.31,  2756.00000,  1740.10000
    292.79,  2773.20000,  1730.20000
    293.28,  2770.80000,  1727.60000
    293.76,  2779.00000,  1735.50000
    294.24,  2778.00000,  1736.00000
    294.73,  2796.30000,  1739.20000
    295.21,  2800.20000,  1736.40000
    295.69,  2814.60000,  1729.90000
    296.18,  2792.00000,  1718.10000
    296.66,  2750.70000,  1705.30000
    297.14,  2744.40000,  1696.90000
    297.63,  2751.90000,  1683.80000
    298.11,  2767.00000,  1678.60000
    298.59,  2804.90000,  1673.90000
    299.08,  2820.80000,  1659.00000
    299.56,  2818.00000,  1645.60000
    300.04,  2838.00000,  1635.90000
    300.53,  2841.20000,  1614.00000
    301.01,  2839.00000,  1600.30000
    301.49,  2830.80000,  1595.50000
    301.98,  2801.10000,  1588.20000
    302.46,  2769.70000,  1589.50000
    302.94,  2775.50000,  1573.70000
    303.42,  2769.90000,  1564.30000
    303.91,  2762.20000,  1545.60000
    304.39,  2744.80000,  1535.60000
    304.87,  2747.20000,  1530.40000
    305.36,  2767.10000,  1526.30000
    305.84,  2800.30000,  1521.20000
    306.32,  2828.40000,  1520.80000
    306.81,  2819.10000,  1508.00000
    307.29,  2791.50000,  1491.90000
    307.77,  2783.00000,  1469.20000
    308.25,  2787.90000,  1453.10000
    308.74,  2798.20000,  1452.40000
    309.22,  2790.90000,  1443.00000
    309.70,  2778.30000,  1435.50000
    310.18,  2758.10000,  1440.00000
    310.67,  2762.60000,  1438.80000
    311.15,  2779.00000,  1429.50000
    311.63,  2793.80000,  1427.30000
    312.12,  2797.50000,  1418.30000
    312.60,  2777.40000,  1399.20000
    313.08,  2751.30000,  1398.20000
    313.56,  2747.70000,  1389.00000
    314.05,  2749.50000,  1378.30000
    314.53,  2770.10000,  1376.70000
    315.01,  2827.60000,  1372.90000
    315.49,  2825.90000,  1353.10000
    315.98,  2827.70000,  1346.00000
    316.46,  2808.00000,  1330.50000
    316.94,  2768.00000,  1329.60000
    317.42,  2749.60000,  1334.10000
    317.90,  2753.20000,  1339.80000
    318.39,  2725.90000,  1341.00000
    318.87,  2776.50000,  1342.30000
    319.35,  2803.90000,  1332.10000
    319.83,  2816.10000,  1326.10000
    320.32,  2829.90000,  1324.60000
    320.80,  2833.40000,  1321.10000
    321.28,  2786.60000,  1321.90000
    321.76,  2826.60000,  1318.60000
    322.24,  2827.30000,  1315.70000
    322.73,  2838.50000,  1311.20000
    323.21,  2840.70000,  1319.30000
    323.69,  2844.50000,  1313.70000
    324.17,  2788.30000,  1320.40000
    324.65,  2756.80000,  1325.50000
    325.14,  2757.40000,  1328.00000
    325.62,  2769.30000,  1321.60000
    326.10,  2818.50000,  1320.90000
    326.58,  2843.70000,  1308.10000
    327.06,  2806.20000,  1300.60000
    327.55,  2820.90000,  1299.90000
    328.03,  2845.40000,  1305.80000
    328.51,  2849.80000,  1305.10000
    328.99,  2862.90000,  1306.00000
    329.47,  2849.70000,  1305.80000
    329.95,  2782.30000,  1304.80000
    330.44,  2796.80000,  1306.60000
    330.92,  2766.80000,  1312.40000
    331.40,  2751.00000,  1298.70000
    331.88,  2741.10000,  1297.00000
    332.36,  2749.10000,  1292.90000
    332.84,  2776.30000,  1294.20000
    333.33,  2821.30000,  1286.70000
    333.81,  2821.10000,  1283.70000
    334.29,  2827.80000,  1267.70000
    334.77,  2824.90000,  1280.10000
    335.25,  2811.30000,  1286.70000
    335.73,  2825.40000,  1299.00000
    336.21,  2819.50000,  1300.10000
    336.69,  2799.10000,  1294.80000
    337.18,  2788.50000,  1279.00000
    337.66,  2768.90000,  1273.40000
    338.14,  2757.00000,  1262.70000
    338.62,  2751.30000,  1266.20000
    339.10,  2774.70000,  1273.80000
    339.58,  2815.30000,  1275.40000
    340.06,  2829.70000,  1276.20000
    340.54,  2828.10000,  1282.50000
    341.03,  2814.20000,  1274.60000
    341.51,  2787.70000,  1271.60000
    341.99,  2788.40000,  1266.50000
    342.47,  2797.10000,  1261.50000
    342.95,  2791.80000,  1256.90000
    343.43,  2788.00000,  1267.00000
    343.91,  2780.40000,  1271.10000
    344.39,  2763.90000,  1269.50000
    344.87,  2746.50000,  1266.40000
    345.35,  2763.10000,  1259.00000
    345.84,  2776.80000,  1254.50000
    346.32,  2825.70000,  1257.20000
    346.80,  2844.00000,  1256.40000
    347.28,  2840.10000,  1260.20000
    347.76,  2812.70000,  1259.30000
    348.24,  2809.10000,  1257.50000
    348.72,  2827.20000,  1255.60000
    349.20,  2852.00000,  1244.30000
    349.68,  2841.80000,  1234.30000
    350.16,  2803.70000,  1244.00000
    350.64,  2762.50000,  1249.60000
    351.12,  2742.70000,  1261.60000
    351.60,  2795.50000,  1263.70000
    352.08,  2840.40000,  1256.60000
    352.56,  2868.40000,  1248.70000
    353.04,  2863.90000,  1244.50000
    353.53,  2846.50000,  1250.60000
    354.01,  2822.90000,  1246.90000
    354.49,  2832.50000,  1244.10000
    354.97,  2823.10000,  1247.90000
    355.45,  2818.40000,  1250.70000
    355.93,  2798.50000,  1250.30000
    356.41,  2812.90000,  1252.20000
    356.89,  2799.90000,  1242.50000
    357.37,  2803.20000,  1245.00000
    357.85,  2779.50000,  1247.50000
    358.33,  2768.40000,  1256.70000
    358.81,  2749.80000,  1252.90000
    359.29,  2764.20000,  1245.80000
    359.77,  2788.80000,  1240.70000
    360.25,  2809.80000,  1247.70000
    360.73,  2808.10000,  1245.70000
    361.21,  2801.10000,  1242.80000
    361.69,  2807.10000,  1240.70000
    362.17,  2803.20000,  1248.20000
    362.65,  2818.30000,  1248.20000
    363.13,  2821.40000,  1252.50000
    363.61,  2822.30000,  1257.60000
    364.09,  2792.00000,  1254.70000
    364.57,  2784.80000,  1259.20000
    365.05,  2790.30000,  1262.00000
    365.53,  2775.90000,  1257.90000
    366.01,  2795.70000,  1258.70000
    366.49,  2832.70000,  1262.60000
    366.97,  2789.30000,  1265.80000
    367.45,  2801.10000,  1265.80000
    367.93,  2831.50000,  1262.10000
    368.41,  2817.20000,  1263.30000
    368.89,  2820.80000,  1268.20000
    369.37,  2827.00000,  1268.50000
    369.85,  2775.70000,  1264.90000
    370.33,  2799.70000,  1254.30000
    370.80,  2817.50000,  1251.70000
    371.28,  2819.10000,  1250.00000
    371.76,  2793.20000,  1255.80000
    372.24,  2773.30000,  1265.50000
    372.72,  2771.20000,  1272.80000
    373.20,  2794.20000,  1275.50000
    373.68,  2819.10000,  1281.90000
    374.16,  2842.70000,  1275.00000
    374.64,  2816.00000,  1281.30000
    375.12,  2790.00000,  1280.90000
    375.60,  2819.80000,  1285.70000
    376.08,  2793.90000,  1291.60000
    376.56,  2788.10000,  1291.00000
    377.04,  2787.20000,  1283.70000
    377.52,  2787.40000,  1292.90000
    377.99,  2790.30000,  1279.10000
    378.47,  2820.70000,  1279.90000
    378.95,  2802.10000,  1289.60000
    379.43,  2813.90000,  1299.70000
    379.91,  2819.80000,  1295.00000
    380.39,  2855.00000,  1313.90000
    380.87,  2884.10000,  1303.40000
    381.35,  2873.70000,  1300.10000
    381.83,  2848.00000,  1303.50000
    382.31,  2812.50000,  1304.50000
    382.79,  2774.30000,  1301.20000
    383.26,  2778.80000,  1313.80000
    383.74,  2786.00000,  1312.20000
    384.22,  2780.80000,  1319.70000
    384.70,  2791.80000,  1320.30000
    385.18,  2769.90000,  1328.90000
    385.66,  2770.10000,  1345.50000
    386.14,  2783.90000,  1342.40000
    386.62,  2801.10000,  1338.10000
    387.09,  2820.20000,  1340.70000
    387.57,  2830.50000,  1343.60000
    388.05,  2815.50000,  1354.20000
    388.53,  2806.70000,  1359.60000
    389.01,  2816.20000,  1345.10000
    389.49,  2838.30000,  1335.00000
    389.97,  2843.90000,  1340.40000
    390.44,  2826.80000,  1353.70000
    390.92,  2798.90000,  1368.40000
    391.40,  2779.70000,  1376.70000
    391.88,  2786.90000,  1369.50000
    392.36,  2797.20000,  1370.30000
    392.84,  2801.40000,  1378.30000
    393.32,  2809.20000,  1385.90000
    393.79,  2793.30000,  1396.00000
    394.27,  2841.60000,  1400.20000
    394.75,  2844.60000,  1399.50000
    395.23,  2837.00000,  1402.20000
    395.71,  2818.10000,  1405.60000
    396.18,  2821.60000,  1407.30000
    396.66,  2834.00000,  1403.70000
    397.14,  2872.20000,  1409.80000
    397.62,  2838.90000,  1411.70000
    398.10,  2831.00000,  1415.70000
    398.58,  2807.60000,  1425.30000
    399.05,  2816.70000,  1420.60000
    399.53,  2831.70000,  1416.20000
    400.01,  2824.20000,  1421.10000
    400.49,  2795.90000,  1416.50000
    400.97,  2785.90000,  1412.40000
    401.44,  2754.10000,  1409.80000
    401.92,  2780.60000,  1410.70000
    402.40,  2784.80000,  1425.50000
    402.88,  2808.20000,  1437.70000
    403.36,  2816.80000,  1441.30000
    403.83,  2836.50000,  1436.60000
    404.31,  2803.60000,  1420.60000
    404.79,  2818.30000,  1411.00000
    405.27,  2792.60000,  1420.80000
    405.74,  2782.80000,  1427.50000
    406.22,  2806.00000,  1427.60000
    406.70,  2829.20000,  1428.80000
    407.18,  2810.90000,  1420.10000
    407.65,  2806.10000,  1413.40000
    408.13,  2767.70000,  1417.90000
    408.61,  2769.50000,  1421.00000
    409.09,  2783.00000,  1421.50000
    409.56,  2786.80000,  1417.10000
    410.04,  2801.20000,  1408.40000
    410.52,  2799.60000,  1405.60000
    411.00,  2777.80000,  1402.60000
    411.47,  2773.10000,  1402.70000
    411.95,  2755.30000,  1395.90000
    412.43,  2751.40000,  1390.90000
    412.91,  2759.70000,  1380.70000
    413.38,  2778.20000,  1376.20000
    413.86,  2796.70000,  1376.40000
    414.34,  2802.80000,  1373.60000
    414.82,  2817.50000,  1367.60000
    415.29,  2807.40000,  1373.70000
    415.77,  2815.40000,  1359.50000
    416.25,  2813.90000,  1345.60000
    416.72,  2805.90000,  1340.10000
    417.20,  2796.10000,  1330.80000
    417.68,  2766.80000,  1328.90000
    418.16,  2755.50000,  1339.40000
    418.63,  2785.60000,  1332.30000
    419.11,  2785.20000,  1331.60000
    419.59,  2789.00000,  1333.60000
    420.06,  2768.30000,  1328.70000
    420.54,  2741.30000,  1319.90000
    421.02,  2770.10000,  1314.40000
    421.50,  2797.00000,  1305.80000
    421.97,  2803.30000,  1296.50000
    422.45,  2792.30000,  1296.10000
    422.93,  2781.80000,  1288.10000
    423.40,  2763.80000,  1276.60000
    423.88,  2767.20000,  1274.40000
    424.36,  2768.20000,  1276.00000
    424.83,  2775.40000,  1276.70000
    425.31,  2788.60000,  1299.30000
    425.79,  2840.40000,  1303.00000
    426.26,  2883.70000,  1297.60000
    426.74,  2869.90000,  1289.00000
    427.22,  2852.40000,  1282.00000
    427.69,  2826.80000,  1277.70000
    428.17,  2797.60000,  1282.00000
    428.65,  2776.00000,  1287.20000
    429.12,  2814.60000,  1279.20000
    429.60,  2800.00000,  1279.00000
    430.08,  2807.30000,  1280.20000
    430.55,  2818.90000,  1271.50000
    431.03,  2817.40000,  1262.30000
    431.50,  2812.50000,  1259.10000
    431.98,  2808.90000,  1257.30000
    432.46,  2809.30000,  1264.30000
    432.93,  2786.90000,  1267.30000
    433.41,  2772.90000,  1264.10000
    433.89,  2767.60000,  1263.10000
    434.36,  2774.30000,  1259.40000
    434.84,  2767.00000,  1261.20000
    435.31,  2794.00000,  1252.90000
    435.79,  2792.70000,  1253.60000
    436.27,  2786.20000,  1253.10000
    436.74,  2782.40000,  1254.80000
    437.22,  2781.70000,  1258.40000
    437.70,  2779.30000,  1257.60000
    438.17,  2779.20000,  1248.50000
    438.65,  2781.00000,  1247.60000
    439.12,  2795.20000,  1234.30000
    439.60,  2792.20000,  1238.40000
    440.08,  2799.80000,  1243.80000
    440.55,  2780.20000,  1254.60000
    441.03,  2788.90000,  1256.80000
    441.50,  2788.50000,  1258.00000
    441.98,  2809.40000,  1241.60000
    442.45,  2794.30000,  1250.80000
    442.93,  2793.90000,  1254.20000
    443.41,  2774.90000,  1258.50000
    443.88,  2778.20000,  1266.90000
    444.36,  2769.00000,  1268.30000
    444.83,  2773.90000,  1266.80000
    445.31,  2770.70000,  1266.30000
    445.78,  2756.10000,  1256.50000
    446.26,  2762.20000,  1248.90000
    446.74,  2762.50000,  1251.50000
    447.21,  2778.10000,  1254.20000
    447.69,  2791.50000,  1261.90000
    448.16,  2809.80000,  1264.60000
    448.64,  2794.10000,  1252.60000
    449.11,  2786.20000,  1250.30000
    449.59,  2794.80000,  1245.20000
    450.06,  2794.80000,  1242.70000
    450.54,  2792.70000,  1242.00000
    451.02,  2817.20000,  1249.00000
    451.49,  2824.20000,  1240.00000
    451.97,  2818.00000,  1239.00000
    452.44,  2815.80000,  1230.70000
    452.92,  2798.40000,  1239.10000
    453.39,  2784.90000,  1244.30000
    453.87,  2790.70000,  1252.10000
    454.34,  2791.70000,  1250.20000
    454.82,  2796.00000,  1243.80000
    455.29,  2808.20000,  1230.70000
    455.77,  2814.90000,  1227.70000
    456.24,  2790.80000,  1229.10000
    456.72,  2765.60000,  1232.90000
    457.19,  2762.30000,  1231.20000
    457.67,  2777.90000,  1243.10000
    458.14,  2808.40000,  1248.80000
    458.62,  2819.90000,  1242.90000
    459.09,  2803.40000,  1242.70000
    459.57,  2774.40000,  1240.60000
    460.04,  2781.80000,  1237.90000
    460.52,  2784.00000,  1253.00000
    460.99,  2780.90000,  1255.80000
    461.47,  2774.80000,  1247.90000
    461.94,  2750.80000,  1237.40000
    462.42,  2745.60000,  1230.10000
    462.89,  2761.50000,  1233.30000
    463.37,  2780.40000,  1242.30000
    463.84,  2787.80000,  1245.20000
    464.32,  2795.70000,  1248.20000
    464.79,  2792.20000,  1258.30000
    465.26,  2796.80000,  1260.50000
    465.74,  2784.60000,  1255.20000
    466.21,  2802.30000,  1248.90000
    466.69,  2812.10000,  1237.30000
    467.16,  2817.20000,  1227.50000
    467.64,  2798.10000,  1233.70000
    468.11,  2780.80000,  1238.40000
    468.59,  2778.20000,  1236.00000
    469.06,  2789.30000,  1242.40000
    469.54,  2819.70000,  1246.60000
    470.01,  2822.50000,  1242.90000
    470.48,  2778.90000,  1242.90000
    470.96,  2791.60000,  1245.50000
    471.43,  2817.10000,  1240.10000
    471.91,  2832.80000,  1245.40000
    472.38,  2865.90000,  1250.10000
    472.86,  2848.00000,  1242.30000
    473.33,  2789.10000,  1238.00000
    473.80,  2780.20000,  1241.40000
    474.28,  2793.40000,  1233.70000
    474.75,  2805.00000,  1238.80000
    475.23,  2837.70000,  1244.10000
    475.70,  2839.80000,  1241.30000
    476.17,  2810.40000,  1244.40000
    476.65,  2804.30000,  1248.70000
    477.12,  2806.20000,  1250.30000
    477.60,  2763.30000,  1262.90000
    478.07,  2764.30000,  1267.60000
    478.54,  2780.10000,  1256.90000
    479.02,  2797.50000,  1249.70000
    479.49,  2829.40000,  1241.00000
    479.97,  2844.20000,  1235.40000
    480.44,  2820.20000,  1245.80000
    480.91,  2785.70000,  1253.10000
    481.39,  2777.30000,  1252.70000
    481.86,  2784.40000,  1240.50000
    482.34,  2768.40000,  1232.50000
    482.81,  2793.80000,  1219.20000
    483.28,  2816.40000,  1227.00000
    483.76,  2793.80000,  1238.80000
    484.23,  2803.50000,  1254.00000
    484.70,  2788.20000,  1252.90000
    485.18,  2776.10000,  1255.10000
    485.65,  2783.90000,  1252.70000
    486.12,  2795.90000,  1244.50000
    486.60,  2779.20000,  1241.90000
    487.07,  2780.90000,  1250.80000
    487.55,  2799.20000,  1261.40000
    488.02,  2825.00000,  1260.60000
    488.49,  2818.80000,  1263.00000
    488.97,  2834.60000,  1249.00000
    489.44,  2826.20000,  1248.00000
    489.91,  2787.00000,  1250.00000
    490.39,  2781.00000,  1255.30000
    490.86,  2748.70000,  1247.50000
    491.33,  2711.20000,  1244.20000
    491.81,  2753.00000,  1243.10000
    492.28,  2795.20000,  1240.40000
    492.75,  2786.50000,  1243.00000
    493.23,  2835.30000,  1248.10000
    493.70,  2851.40000,  1248.10000
    494.17,  2847.20000,  1250.00000
    494.64,  2843.90000,  1248.20000
    495.12,  2806.70000,  1247.30000
    495.59,  2805.50000,  1250.80000
    496.06,  2833.40000,  1251.80000
    496.54,  2848.30000,  1250.30000
    497.01,  2835.20000,  1236.20000
    497.48,  2825.40000,  1228.30000
    497.96,  2802.30000,  1225.90000
    498.43,  2831.90000,  1234.90000
    498.90,  2828.90000,  1241.60000
    499.37,  2841.90000,  1258.30000
    499.85,  2817.10000,  1257.30000
    500.32,  2815.90000,  1259.80000
    500.79,  2797.80000,  1250.80000
    501.27,  2802.60000,  1243.30000
    501.74,  2792.80000,  1235.80000
    502.21,  2787.30000,  1240.40000
    502.68,  2782.40000,  1240.60000
    503.16,  2778.00000,  1238.60000
    503.63,  2777.50000,  1230.40000
    504.10,  2795.00000,  1218.20000
    504.57,  2788.80000,  1211.70000
    505.05,  2792.90000,  1225.50000
    505.52,  2810.10000,  1230.40000
    505.99,  2807.40000,  1232.00000
    506.46,  2805.70000,  1227.30000
    506.94,  2793.90000,  1226.10000
    507.41,  2783.40000,  1220.90000
    507.88,  2782.00000,  1232.60000
    508.35,  2780.80000,  1232.20000
    508.83,  2773.50000,  1236.60000
    509.30,  2799.90000,  1234.90000
    509.77,  2802.20000,  1231.60000
    510.24,  2801.00000,  1224.10000
    510.72,  2783.60000,  1219.70000
    511.19,  2770.80000,  1216.00000
    511.66,  2775.00000,  1219.80000
    512.13,  2805.90000,  1220.20000
    512.60,  2791.40000,  1224.30000
    513.08,  2783.10000,  1225.30000
    513.55,  2771.20000,  1230.70000
    514.02,  2754.50000,  1227.00000
    514.49,  2759.60000,  1227.70000
    514.97,  2771.10000,  1226.40000
    515.44,  2781.70000,  1225.60000
    515.91,  2779.70000,  1221.40000
    516.38,  2777.10000,  1224.00000
    516.85,  2746.60000,  1217.70000
    517.33,  2734.10000,  1226.60000
    517.80,  2733.00000,  1238.40000
    518.27,  2755.60000,  1243.20000
    518.74,  2792.10000,  1235.90000
    519.21,  2817.60000,  1226.90000
    519.68,  2801.10000,  1218.20000
    520.16,  2781.60000,  1214.00000
    520.63,  2761.60000,  1220.40000
    521.10,  2756.70000,  1225.90000
    521.57,  2783.90000,  1224.60000
    522.04,  2796.30000,  1214.40000
    522.52,  2787.90000,  1214.10000
    522.99,  2775.50000,  1204.40000
    523.46,  2789.60000,  1204.90000
    523.93,  2794.50000,  1215.50000
    524.40,  2820.50000,  1220.50000
    524.87,  2810.90000,  1218.60000
    525.34,  2790.30000,  1221.20000
    525.82,  2777.20000,  1223.50000
    526.29,  2786.70000,  1232.50000
    526.76,  2781.90000,  1242.20000
    527.23,  2810.10000,  1231.50000
    527.70,  2793.90000,  1224.90000
    528.17,  2783.80000,  1223.50000
    528.64,  2772.80000,  1229.30000
    529.12,  2780.00000,  1240.20000
    529.59,  2780.30000,  1244.70000
    530.06,  2792.80000,  1237.60000
    530.53,  2826.70000,  1229.50000
    531.00,  2797.00000,  1229.40000
    531.47,  2749.20000,  1225.40000
    531.94,  2740.20000,  1236.90000
    532.41,  2732.80000,  1248.10000
    532.89,  2750.00000,  1252.50000
    533.36,  2818.40000,  1251.50000
    533.83,  2805.60000,  1256.20000
    534.30,  2790.50000,  1255.10000
    534.77,  2798.60000,  1261.80000
    535.24,  2800.50000,  1267.10000
    535.71,  2790.50000,  1268.40000
    536.18,  2807.30000,  1269.90000
    536.65,  2803.80000,  1273.60000
    537.13,  2779.60000,  1278.00000
    537.60,  2760.80000,  1285.90000
    538.07,  2759.10000,  1288.00000
    538.54,  2743.10000,  1286.70000
    539.01,  2766.40000,  1283.60000
    539.48,  2809.50000,  1283.90000
    539.95,  2823.00000,  1290.70000
    540.42,  2828.50000,  1303.80000
    540.89,  2808.30000,  1311.00000
    541.36,  2778.10000,  1324.50000
    541.83,  2772.30000,  1332.00000
    542.30,  2773.00000,  1334.80000
    542.77,  2781.70000,  1332.50000
    543.25,  2804.90000,  1327.30000
    543.72,  2803.60000,  1333.40000
    544.19,  2803.00000,  1345.20000
    544.66,  2780.10000,  1360.00000
    545.13,  2764.00000,  1368.20000
    545.60,  2745.60000,  1374.60000
    546.07,  2769.30000,  1368.70000
    546.54,  2785.90000,  1368.00000
    547.01,  2801.40000,  1368.00000
    547.48,  2802.00000,  1367.30000
    547.95,  2800.10000,  1368.80000
    548.42,  2783.10000,  1376.10000
    548.89,  2808.90000,  1374.20000
    549.36,  2795.50000,  1383.60000
    549.83,  2778.00000,  1402.40000
    550.30,  2820.70000,  1403.20000
    550.77,  2822.00000,  1413.40000
    551.24,  2827.20000,  1408.50000
    551.71,  2843.90000,  1399.80000
    552.18,  2812.50000,  1403.80000
    552.65,  2763.40000,  1412.00000
    553.12,  2788.60000,  1422.40000
    553.59,  2788.00000,  1437.70000
    554.06,  2797.40000,  1429.80000
    554.53,  2805.80000,  1431.70000
    555.00,  2792.20000,  1436.90000
    555.47,  2782.50000,  1438.60000
    555.94,  2779.30000,  1442.20000
    556.41,  2776.90000,  1446.60000
    556.88,  2762.80000,  1450.20000
    557.35,  2754.10000,  1461.30000
    557.82,  2739.90000,  1470.70000
    558.29,  2751.30000,  1463.70000
    558.76,  2794.40000,  1459.10000
    559.23,  2815.10000,  1451.50000
    559.70,  2822.50000,  1448.20000
    560.17,  2815.40000,  1440.10000
    560.64,  2803.20000,  1443.00000
    561.11,  2782.30000,  1450.40000
    561.58,  2806.50000,  1452.90000
    562.05,  2787.30000,  1462.60000
    562.52,  2799.20000,  1458.00000
    562.99,  2797.10000,  1454.10000
    563.46,  2810.40000,  1446.40000
    563.93,  2801.10000,  1456.20000
    564.40,  2810.60000,  1446.30000
    564.87,  2809.80000,  1457.60000
    565.34,  2825.50000,  1459.20000
    565.81,  2811.30000,  1469.90000
    566.28,  2804.10000,  1470.80000
    566.74,  2781.80000,  1474.80000
    567.21,  2773.40000,  1467.10000
    567.68,  2789.30000,  1461.20000
    568.15,  2781.40000,  1462.10000
    568.62,  2772.60000,  1468.20000
    569.09,  2771.80000,  1468.80000
    569.56,  2770.90000,  1470.00000
    570.03,  2775.60000,  1465.80000
    570.50,  2813.00000,  1463.00000
    570.97,  2807.60000,  1462.70000
    571.44,  2792.40000,  1468.00000
    571.91,  2797.00000,  1457.60000
    572.38,  2792.00000,  1453.40000
    572.84,  2773.80000,  1451.90000
    573.31,  2787.50000,  1455.60000
    573.78,  2782.20000,  1458.40000
    574.25,  2770.70000,  1468.20000
    574.72,  2791.30000,  1462.60000
    575.19,  2791.80000,  1455.20000
    575.66,  2783.90000,  1453.40000
    576.13,  2781.70000,  1452.00000
    576.60,  2793.80000,  1452.60000
    577.07,  2816.80000,  1464.20000
    577.53,  2839.80000,  1459.70000
    578.00,  2836.50000,  1451.10000
    578.47,  2819.60000,  1449.30000
    578.94,  2792.90000,  1441.00000
    579.41,  2770.90000,  1438.20000
    579.88,  2781.90000,  1445.60000
    580.35,  2790.90000,  1441.10000
    580.82,  2799.00000,  1427.10000
    581.28,  2814.70000,  1423.40000
    581.75,  2808.30000,  1422.50000
    582.22,  2796.10000,  1432.40000
    582.69,  2793.20000,  1447.30000
    583.16,  2798.60000,  1452.40000
    583.63,  2794.10000,  1441.30000
    584.10,  2821.90000,  1440.20000
    584.56,  2835.50000,  1440.60000
    585.03,  2820.10000,  1444.40000
    585.50,  2807.30000,  1439.90000
    585.97,  2780.80000,  1430.30000
    586.44,  2770.70000,  1427.00000
    586.91,  2793.50000,  1435.90000
    587.37,  2800.80000,  1442.30000
    587.84,  2788.00000,  1447.10000
    588.31,  2778.40000,  1436.30000
    588.78,  2745.60000,  1427.20000
    589.25,  2767.80000,  1428.90000
    589.72,  2768.20000,  1431.20000
    590.18,  2788.80000,  1438.40000
    590.65,  2814.40000,  1442.20000
    591.12,  2799.40000,  1439.10000
    591.59,  2802.50000,  1435.90000
    592.06,  2791.80000,  1433.50000
    592.52,  2757.80000,  1433.80000
    592.99,  2772.40000,  1435.60000
    593.46,  2775.40000,  1424.70000
    593.93,  2732.90000,  1416.40000
    594.40,  2763.10000,  1410.30000
    594.86,  2789.20000,  1409.70000
    595.33,  2805.10000,  1422.20000
    595.80,  2819.60000,  1431.50000
    596.27,  2823.50000,  1427.00000
    596.74,  2796.90000,  1413.60000
    597.20,  2783.70000,  1409.00000
    597.67,  2797.50000,  1406.20000
    598.14,  2783.00000,  1414.90000
    598.61,  2771.10000,  1433.40000
    599.07,  2769.40000,  1446.10000
    599.54,  2760.10000,  1445.40000
    600.01,  2742.60000,  1442.40000
    600.48,  2803.40000,  1423.20000
    600.95,  2835.10000,  1406.00000
    601.41,  2848.10000,  1400.70000
    601.88,  2827.80000,  1401.60000
    602.35,  2773.70000,  1404.60000
    602.82,  2721.50000,  1410.50000
    603.28,  2735.40000,  1415.70000
    603.75,  2743.80000,  1404.40000
    604.22,  2776.10000,  1393.30000
    604.69,  2793.70000,  1387.70000
    605.15,  2798.70000,  1380.90000
    605.62,  2787.60000,  1390.70000
    606.09,  2774.20000,  1406.00000
    606.56,  2754.00000,  1403.30000
    607.02,  2758.70000,  1394.50000
    607.49,  2756.00000,  1390.20000
    607.96,  2780.80000,  1381.40000
    608.42,  2782.60000,  1379.20000
    608.89,  2836.30000,  1376.90000
    609.36,  2845.60000,  1372.50000
    609.83,  2827.90000,  1377.60000
    610.29,  2786.90000,  1383.40000
    610.76,  2757.90000,  1393.40000
    611.23,  2738.10000,  1394.70000
    611.69,  2775.30000,  1381.20000
    612.16,  2784.90000,  1366.60000
    612.63,  2787.80000,  1362.00000
    613.10,  2775.40000,  1350.50000
    613.56,  2762.80000,  1345.90000
    614.03,  2768.90000,  1344.10000
    614.50,  2776.80000,  1337.20000
    614.96,  2782.70000,  1344.90000
    615.43,  2787.60000,  1350.80000
    615.90,  2796.80000,  1349.10000
    616.36,  2791.50000,  1349.40000
    616.83,  2776.60000,  1345.00000
    617.30,  2768.60000,  1333.00000
    617.76,  2749.40000,  1323.20000
    618.23,  2734.50000,  1315.20000
    618.70,  2734.80000,  1304.80000
    619.16,  2746.50000,  1311.20000
    619.63,  2751.80000,  1306.00000
    620.10,  2758.60000,  1305.20000
    620.56,  2758.40000,  1297.90000
    621.03,  2777.80000,  1299.60000
    621.50,  2784.20000,  1292.50000
    621.96,  2792.40000,  1292.10000
    622.43,  2788.10000,  1280.10000
    622.90,  2794.70000,  1277.20000
    623.36,  2798.60000,  1273.90000
    623.83,  2804.40000,  1280.00000
    624.30,  2795.60000,  1278.90000
    624.76,  2793.90000,  1286.50000
    625.23,  2795.20000,  1284.40000
    625.70,  2809.80000,  1283.30000
    626.16,  2806.40000,  1280.40000
    626.63,  2774.80000,  1269.40000
    627.09,  2765.00000,  1262.80000
    627.56,  2775.40000,  1251.60000
    628.03,  2776.50000,  1254.50000
    628.49,  2785.20000,  1261.10000
    628.96,  2771.90000,  1259.00000
    629.43,  2766.80000,  1259.90000
    629.89,  2764.40000,  1261.10000
    630.36,  2774.70000,  1243.50000
    630.82,  2764.00000,  1256.40000
    631.29,  2761.20000,  1254.50000
    631.76,  2746.80000,  1245.90000
    632.22,  2735.20000,  1241.50000
    632.69,  2741.30000,  1226.30000
    633.15,  2765.10000,  1214.30000
    633.62,  2795.20000,  1222.10000
    634.09,  2816.10000,  1219.30000
    634.55,  2816.20000,  1215.30000
    635.02,  2788.60000,  1213.10000
    635.48,  2776.70000,  1203.90000
    635.95,  2764.60000,  1205.10000
    636.42,  2773.30000,  1200.90000
    636.88,  2769.80000,  1194.60000
    637.35,  2767.30000,  1195.00000
    637.81,  2778.00000,  1195.40000
    638.28,  2781.90000,  1192.70000
    638.74,  2796.10000,  1193.10000
    639.21,  2800.90000,  1189.70000
    639.68,  2773.40000,  1193.60000
    640.14,  2745.50000,  1197.70000
    640.61,  2751.50000,  1196.10000
    641.07,  2731.00000,  1191.40000
    641.54,  2752.50000,  1186.80000
    642.00,  2764.40000,  1193.30000
    642.47,  2776.80000,  1191.40000
    642.93,  2780.60000,  1182.80000
    643.40,  2783.50000,  1174.60000
    643.87,  2769.90000,  1169.80000
    644.33,  2777.00000,  1160.60000
    644.80,  2778.00000,  1169.60000
    645.26,  2767.40000,  1160.50000
    645.73,  2754.50000,  1160.60000
    646.19,  2746.00000,  1158.40000
    646.66,  2748.30000,  1161.30000
    647.12,  2742.50000,  1160.90000
    647.59,  2753.80000,  1162.90000
    648.05,  2766.20000,  1162.90000
    648.52,  2762.80000,  1161.10000
    648.98,  2756.90000,  1162.30000
    649.45,  2743.00000,  1159.60000
    649.91,  2717.20000,  1166.50000
    650.38,  2735.40000,  1140.70000
    650.84,  2800.90000,  1125.00000
    651.31,  2810.30000,  1112.30000
    651.77,  2803.70000,  1114.20000
    652.24,  2764.70000,  1122.30000
    652.70,  2728.40000,  1139.40000
    653.17,  2717.50000,  1127.60000
    653.63,  2751.80000,  1119.20000
    654.10,  2746.00000,  1123.50000
    654.56,  2757.70000,  1122.80000
    655.03,  2748.30000,  1131.90000
    655.49,  2758.50000,  1129.90000
    655.96,  2764.10000,  1115.70000
    656.42,  2760.20000,  1111.80000
    656.89,  2749.00000,  1105.40000
    657.35,  2793.30000,  1118.10000
    657.82,  2823.90000,  1129.20000
    658.28,  2858.80000,  1131.50000
    658.75,  2876.20000,  1125.40000
    659.21,  2835.90000,  1126.40000
    659.68,  2803.20000,  1118.60000
    660.14,  2783.40000,  1134.60000
    660.61,  2741.90000,  1128.80000
    661.07,  2777.00000,  1123.50000
    661.53,  2797.70000,  1105.90000
    662.00,  2818.80000,  1094.70000
    662.46,  2814.50000,  1093.30000
    662.93,  2792.60000,  1097.10000
    663.39,  2761.90000,  1089.30000
    663.86,  2787.20000,  1095.80000
    664.32,  2786.00000,  1091.60000
    664.79,  2810.20000,  1090.00000
    665.25,  2798.00000,  1095.30000
    665.71,  2775.40000,  1095.10000
    666.18,  2747.20000,  1085.50000
    666.64,  2767.90000,  1086.20000
    667.11,  2764.70000,  1079.90000
    667.57,  2784.20000,  1072.00000
    668.04,  2797.60000,  1064.60000
    668.50,  2789.40000,  1056.30000
    668.96,  2771.70000,  1051.90000
    669.43,  2800.00000,  1050.30000
    669.89,  2778.00000,  1052.80000
    670.36,  2761.30000,  1056.60000
    670.82,  2750.20000,  1064.30000
    671.28,  2756.20000,  1056.30000
    671.75,  2760.70000,  1049.20000
    672.21,  2790.80000,  1037.90000
    672.68,  2796.90000,  1030.40000
    673.14,  2811.80000,  1028.30000
    673.60,  2817.20000,  1047.00000
    674.07,  2792.40000,  1052.00000
    674.53,  2759.70000,  1053.90000
    675.00,  2746.60000,  1050.70000
    675.46,  2739.40000,  1036.60000
    675.92,  2743.00000,  1032.80000
    676.39,  2771.50000,  1047.30000
    676.85,  2774.10000,  1040.10000
    677.31,  2785.30000,  1035.90000
    677.78,  2793.60000,  1024.00000
    678.24,  2784.60000,  1010.90000
    678.70,  2761.40000,  1010.40000
    679.17,  2741.40000,  1017.10000
    679.63,  2721.40000,  1003.80000
    680.10,  2724.70000,  1001.50000
    680.56,  2752.90000,   995.70000
    681.02,  2751.40000,  1009.10000
    681.49,  2781.40000,  1018.00000
    681.95,  2781.20000,  1010.60000
    682.41,  2774.80000,  1002.30000
    682.88,  2767.20000,   989.80000
    683.34,  2766.60000,   977.90000
    683.80,  2737.50000,   982.20000
    684.27,  2751.60000,   992.60000
    684.73,  2755.70000,   989.70000
    685.19,  2779.70000,   996.10000
    685.66,  2803.40000,  1001.50000
    686.12,  2805.50000,   994.10000
    686.58,  2816.90000,   989.70000
    687.05,  2811.30000,   982.70000
    687.51,  2791.40000,   978.00000
    687.97,  2778.60000,   977.10000
    688.44,  2775.90000,   988.10000
    688.90,  2772.00000,   985.80000
    689.36,  2776.50000,   974.90000
    689.83,  2784.00000,   965.20000
    690.29,  2785.50000,   975.30000
    690.75,  2791.00000,   974.10000
    691.21,  2802.40000,   973.90000
    691.68,  2792.30000,   972.50000
    692.14,  2767.80000,   963.00000
    692.60,  2784.00000,   956.60000
    693.07,  2765.60000,   961.30000
    693.53,  2787.10000,   953.30000
    693.99,  2807.50000,   941.80000
    694.45,  2803.10000,   947.80000
    694.92,  2809.70000,   959.90000
    695.38,  2822.40000,   951.70000
    695.84,  2805.50000,   940.00000
    696.31,  2797.40000,   930.70000
    696.77,  2810.20000,   916.00000
    697.23,  2802.70000,   916.40000
    697.69,  2800.70000,   917.20000
    698.16,  2786.80000,   906.80000
    698.62,  2768.10000,   912.50000
    699.08,  2741.30000,   922.30000
    699.54,  2747.20000,   928.20000
    700.01,  2744.10000,   926.40000
    700.47,  2736.40000,   918.30000
    700.93,  2743.80000,   896.20000
    701.39,  2748.20000,   904.70000
    701.86,  2757.60000,   906.50000
    702.32,  2761.00000,   907.80000
    702.78,  2766.90000,   911.30000
    703.24,  2757.80000,   917.50000
    703.71,  2764.40000,   905.40000
    704.17,  2775.20000,   908.60000
    704.63,  2775.90000,   905.60000
    705.09,  2764.10000,   905.90000
    705.56,  2792.10000,   905.50000
    706.02,  2798.80000,   892.50000
    706.48,  2783.80000,   883.80000
    706.94,  2776.10000,   882.30000
    707.40,  2755.30000,   883.20000
    707.87,  2743.50000,   896.60000
    708.33,  2752.90000,   908.30000
    708.79,  2751.60000,   893.30000
    709.25,  2724.00000,   889.70000
    709.72,  2733.40000,   881.50000
    710.18,  2752.00000,   877.60000
    710.64,  2750.10000,   888.80000
    711.10,  2736.50000,   905.90000
    711.56,  2753.60000,   897.20000
    712.03,  2767.40000,   899.40000
    712.49,  2795.60000,   894.10000
    712.95,  2819.40000,   887.60000
    713.41,  2798.10000,   894.90000
    713.87,  2788.30000,   887.70000
    714.33,  2786.80000,   881.30000
    714.80,  2776.40000,   878.30000
    715.26,  2731.80000,   875.50000
    715.72,  2733.20000,   861.50000
    716.18,  2729.00000,   860.30000
    716.64,  2750.10000,   856.50000
    717.11,  2754.20000,   859.00000
    717.57,  2753.10000,   861.60000
    718.03,  2719.00000,   871.00000
    718.49,  2729.20000,   871.80000
    718.95,  2769.20000,   871.00000
    719.41,  2782.70000,   869.80000
    719.87,  2756.40000,   861.80000
    720.34,  2749.00000,   861.70000
    720.80,  2743.10000,   854.70000
    721.26,  2732.50000,   858.60000
    721.72,  2764.40000,   856.10000
    722.18,  2757.00000,   847.90000
    722.64,  2736.50000,   840.20000
    723.10,  2746.60000,   841.10000
    723.57,  2757.80000,   838.40000
    724.03,  2756.80000,   845.70000
    724.49,  2754.60000,   857.10000
    724.95,  2712.90000,   861.80000
    725.41,  2771.30000,   860.80000
    725.87,  2822.70000,   854.20000
    726.33,  2849.10000,   840.60000
    726.80,  2860.10000,   818.30000
    727.26,  2817.90000,   820.60000
    727.72,  2731.30000,   824.30000
    728.18,  2734.50000,   835.50000
    728.64,  2729.50000,   841.90000
    729.10,  2738.40000,   843.50000
    729.56,  2763.10000,   833.40000
    730.02,  2785.30000,   836.30000
    730.48,  2776.80000,   844.60000
    730.94,  2760.50000,   849.90000
    731.41,  2751.60000,   851.20000
    731.87,  2727.50000,   848.20000
    732.33,  2714.00000,   836.50000
    732.79,  2747.90000,   830.10000
    733.25,  2749.50000,   829.40000
    733.71,  2760.50000,   830.10000
    734.17,  2774.70000,   835.30000
    734.63,  2756.90000,   832.60000
    735.09,  2737.30000,   825.60000
    735.55,  2739.10000,   821.20000
    736.01,  2725.80000,   820.50000
    736.47,  2732.00000,   817.40000
    736.94,  2740.20000,   820.40000
    737.40,  2753.10000,   825.30000
    737.86,  2749.70000,   824.70000
    738.32,  2754.00000,   829.60000
    738.78,  2763.50000,   838.10000
    739.24,  2752.00000,   827.60000
    739.70,  2754.40000,   815.40000
    740.16,  2778.80000,   811.70000
    740.62,  2786.50000,   809.50000
    741.08,  2800.80000,   810.90000
    741.54,  2794.20000,   816.20000
    742.00,  2772.30000,   822.00000
    742.46,  2747.80000,   817.00000
    742.92,  2721.40000,   815.50000
    743.38,  2719.80000,   821.50000
    743.84,  2723.30000,   825.20000
    744.30,  2738.60000,   823.30000
    744.76,  2753.50000,   824.80000
    745.22,  2745.00000,   815.40000
    745.68,  2719.40000,   818.00000
    746.14,  2711.10000,   820.40000
    746.60,  2723.70000,   818.80000
    747.06,  2742.60000,   804.80000
    747.52,  2732.10000,   798.10000
    747.98,  2745.20000,   791.80000
    748.44,  2750.60000,   798.80000
    748.90,  2740.80000,   812.50000
    749.36,  2744.30000,   826.00000
    749.82,  2753.50000,   830.50000
    750.28,  2760.10000,   825.50000
    750.74,  2787.90000,   813.90000
    751.20,  2794.90000,   803.20000
    751.66,  2779.60000,   803.20000
    752.12,  2755.40000,   800.50000
    752.58,  2763.00000,   797.40000
    753.04,  2782.70000,   793.10000
    753.50,  2810.80000,   795.10000
    753.96,  2789.50000,   800.80000
    754.42,  2751.10000,   811.90000
    754.88,  2717.60000,   809.30000
    755.34,  2716.40000,   800.80000
    755.80,  2743.50000,   807.10000
    756.26,  2765.90000,   803.00000
    756.72,  2772.30000,   806.30000
    757.18,  2772.00000,   812.30000
    757.64,  2763.10000,   810.50000
    758.10,  2741.80000,   798.60000
    758.56,  2722.80000,   799.60000
    759.02,  2724.40000,   796.20000
    759.48,  2724.90000,   800.70000
    759.94,  2737.20000,   799.80000
    760.40,  2742.50000,   802.00000
    760.86,  2745.20000,   794.00000
    761.32,  2755.10000,   784.10000
    761.78,  2787.70000,   788.70000
    762.24,  2763.20000,   799.60000
    762.70,  2754.30000,   817.90000
    763.15,  2730.90000,   831.40000
    763.61,  2733.90000,   829.20000
    764.07,  2754.80000,   812.20000
    764.53,  2769.80000,   800.90000
    764.99,  2772.80000,   796.00000
    765.45,  2785.00000,   805.70000
    765.91,  2764.70000,   813.50000
    766.37,  2748.50000,   817.10000
    766.83,  2720.80000,   821.30000
    767.29,  2722.80000,   815.60000
    767.75,  2728.30000,   815.30000
    768.21,  2745.00000,   816.30000
    768.66,  2756.20000,   819.00000
    769.12,  2766.40000,   815.30000
    769.58,  2746.50000,   813.00000
    770.04,  2735.60000,   808.20000
    770.50,  2707.60000,   816.80000
    770.96,  2695.00000,   816.60000
    771.42,  2722.70000,   823.40000
    771.88,  2741.80000,   820.80000
    772.34,  2747.90000,   821.70000
    772.80,  2737.40000,   819.60000
    773.25,  2714.00000,   826.60000
    773.71,  2712.30000,   823.00000
    774.17,  2702.80000,   825.90000
    774.63,  2720.00000,   823.50000
    775.09,  2728.90000,   827.70000
    775.55,  2725.70000,   816.90000
    776.01,  2696.60000,   812.40000
    776.47,  2698.10000,   808.20000
    776.92,  2678.50000,   801.40000
    777.38,  2705.80000,   806.90000
    777.84,  2709.20000,   821.30000
    778.30,  2709.50000,   822.60000
    778.76,  2697.70000,   823.80000
    779.22,  2723.30000,   819.90000
    779.68,  2731.80000,   813.70000
    780.13,  2739.70000,   815.10000
    780.59,  2723.80000,   818.30000
    781.05,  2706.30000,   813.90000
    781.51,  2710.40000,   815.50000
    781.97,  2725.80000,   819.60000
    782.43,  2737.40000,   823.90000
    782.88,  2751.70000,   820.00000
    783.34,  2744.40000,   817.10000
    783.80,  2745.70000,   810.20000
    784.26,  2758.80000,   811.40000
    784.72,  2740.60000,   807.60000
    785.18,  2726.80000,   814.40000
    785.63,  2716.70000,   809.00000
    786.09,  2730.70000,   811.70000
    786.55,  2771.20000,   813.70000
    787.01,  2787.80000,   821.30000
    787.47,  2760.20000,   818.60000
    787.92,  2727.80000,   819.80000
    788.38,  2705.20000,   807.40000
    788.84,  2698.30000,   794.80000
    789.30,  2723.70000,   789.30000
    789.76,  2728.90000,   801.20000
    790.21,  2721.90000,   811.40000
    790.67,  2717.00000,   814.60000
    791.13,  2721.90000,   812.20000
    791.59,  2707.00000,   797.50000
    792.05,  2709.10000,   799.80000
    792.50,  2720.60000,   802.70000
    792.96,  2729.20000,   813.90000
    793.42,  2709.90000,   817.40000
    793.88,  2718.60000,   815.40000
    794.33,  2696.40000,   813.60000
    794.79,  2692.70000,   819.70000
    795.25,  2702.00000,   816.60000
    795.71,  2713.60000,   820.20000
    796.17,  2717.90000,   811.10000
    796.62,  2729.00000,   802.40000
    797.08,  2702.50000,   800.70000
    797.54,  2704.20000,   801.90000
    798.00,  2693.70000,   807.80000
    798.45,  2700.60000,   817.70000
    798.91,  2705.30000,   823.20000
    799.37,  2715.20000,   821.70000
    799.83,  2710.20000,   816.70000
    800.28,  2703.70000,   815.00000
    800.74,  2700.00000,   809.40000
    801.20,  2718.00000,   812.70000
    801.66,  2696.20000,   813.40000
    802.11,  2705.60000,   807.30000
    802.57,  2721.10000,   801.90000
    803.03,  2694.00000,   810.80000
    803.48,  2672.60000,   816.20000
    803.94,  2723.90000,   819.00000
    804.40,  2742.70000,   813.60000
    804.86,  2763.60000,   808.70000
    805.31,  2761.00000,   807.70000
    805.77,  2717.90000,   811.30000
    806.23,  2666.60000,   812.10000
    806.69,  2695.00000,   808.00000
    807.14,  2707.60000,   793.90000
    807.60,  2726.30000,   788.30000
    808.06,  2732.80000,   788.50000
    808.51,  2734.90000,   782.80000
    808.97,  2699.70000,   785.60000
    809.43,  2694.50000,   791.30000
    809.88,  2688.80000,   780.60000
    810.34,  2685.30000,   777.20000
    810.80,  2708.30000,   777.30000
    811.26,  2724.40000,   780.70000
    811.71,  2707.50000,   785.80000
    812.17,  2730.50000,   789.90000
    812.63,  2724.00000,   783.20000
    813.08,  2700.70000,   781.90000
    813.54,  2705.70000,   782.90000
    814.00,  2714.40000,   784.50000
    814.45,  2711.20000,   780.50000
    814.91,  2726.40000,   778.60000
    815.37,  2708.60000,   780.80000
    815.82,  2695.70000,   782.90000
    816.28,  2690.00000,   782.40000
    816.74,  2701.10000,   783.00000
    817.19,  2676.50000,   790.30000
    817.65,  2689.80000,   781.20000
    818.11,  2712.10000,   779.40000
    818.56,  2718.50000,   776.80000
    819.02,  2712.00000,   765.80000
    819.48,  2717.50000,   755.60000
    819.93,  2673.70000,   766.80000
    820.39,  2694.60000,   761.40000
    820.84,  2722.20000,   767.90000
    821.30,  2736.70000,   777.60000
    821.76,  2741.70000,   775.00000
    822.21,  2742.50000,   770.90000
    822.67,  2714.90000,   769.70000
    823.13,  2680.20000,   769.40000
    823.58,  2710.70000,   770.20000
    824.04,  2735.00000,   779.30000
    824.49,  2736.80000,   781.80000
    824.95,  2739.60000,   787.40000
    825.41,  2742.10000,   773.50000
    825.86,  2714.80000,   765.70000
    826.32,  2750.80000,   754.20000
    826.78,  2731.60000,   756.40000
    827.23,  2704.20000,   763.10000
    827.69,  2685.10000,   768.80000
    828.14,  2686.10000,   771.60000
    828.60,  2699.10000,   769.20000
    829.06,  2726.20000,   756.30000
    829.51,  2716.30000,   754.20000
    829.97,  2721.60000,   754.50000
    830.42,  2726.50000,   738.30000
    830.88,  2711.80000,   740.00000
    831.34,  2714.90000,   735.80000
    831.79,  2734.60000,   731.50000
    832.25,  2729.90000,   743.60000
    832.70,  2719.20000,   750.20000
    833.16,  2728.50000,   741.40000
    833.61,  2712.80000,   744.70000
    834.07,  2710.90000,   743.00000
    834.53,  2708.10000,   743.80000
    834.98,  2700.10000,   747.50000
    835.44,  2681.20000,   739.20000
    835.89,  2695.70000,   731.60000
    836.35,  2703.50000,   737.40000
    836.80,  2726.30000,   735.40000
    837.26,  2714.50000,   735.90000
    837.71,  2701.00000,   729.80000
    838.17,  2699.60000,   721.30000
    838.63,  2690.00000,   720.50000
    839.08,  2680.40000,   728.90000
    839.54,  2691.30000,   733.30000
    839.99,  2683.40000,   740.90000
    840.45,  2702.20000,   730.90000
    840.90,  2727.90000,   728.80000
    841.36,  2736.70000,   722.30000
    841.81,  2728.60000,   719.70000
    842.27,  2717.40000,   716.90000
    842.72,  2699.00000,   720.00000
    843.18,  2698.30000,   722.40000
    843.63,  2674.50000,   730.80000
    844.09,  2678.20000,   725.10000
    844.55,  2669.20000,   720.70000
    845.00,  2670.10000,   713.80000
    845.46,  2679.00000,   714.80000
    845.91,  2685.10000,   723.90000
    846.37,  2693.50000,   726.70000
    846.82,  2723.70000,   719.10000
    847.28,  2732.40000,   704.50000
    847.73,  2690.40000,   697.10000
    848.19,  2709.90000,   704.80000
    848.64,  2711.00000,   720.70000
    849.10,  2722.80000,   730.10000
    849.55,  2728.80000,   734.50000
    850.01,  2727.10000,   714.90000
    850.46,  2673.50000,   705.60000
    850.92,  2705.10000,   700.80000
    851.37,  2715.50000,   697.90000
    851.83,  2717.90000,   702.80000
    852.28,  2721.40000,   704.10000
    852.73,  2709.90000,   694.10000
    853.19,  2672.80000,   699.50000
    853.64,  2676.60000,   704.30000
    854.10,  2677.80000,   706.10000
    854.55,  2679.60000,   716.80000
    855.01,  2687.50000,   717.50000
    855.46,  2669.30000,   711.10000
    855.92,  2657.20000,   708.00000
    856.37,  2655.30000,   703.70000
    856.83,  2663.10000,   694.80000
    857.28,  2685.50000,   695.30000
    857.74,  2689.50000,   708.20000
    858.19,  2686.70000,   711.80000
    858.64,  2696.70000,   722.50000
    859.10,  2680.20000,   721.20000
    859.55,  2663.10000,   709.20000
    860.01,  2720.30000,   698.40000
    860.46,  2744.50000,   703.40000
    860.92,  2744.50000,   702.70000
    861.37,  2737.80000,   709.60000
    861.83,  2731.20000,   708.40000
    862.28,  2705.40000,   707.40000
    862.73,  2723.40000,   710.40000
    863.19,  2712.30000,   706.60000
    863.64,  2690.50000,   704.90000
    864.10,  2674.30000,   702.70000
    864.55,  2694.90000,   696.50000
    865.01,  2692.90000,   695.30000
    865.46,  2703.10000,   703.10000
    865.91,  2691.70000,   699.60000
    866.37,  2687.80000,   699.80000
    866.82,  2680.20000,   709.20000
    867.28,  2671.40000,   718.10000
    867.73,  2664.20000,   713.60000
    868.18,  2691.90000,   714.10000
    868.64,  2694.90000,   713.20000
    869.09,  2718.10000,   712.40000
    869.55,  2728.10000,   721.90000
    870.00,  2710.80000,   724.10000
    870.45,  2698.40000,   719.10000
    870.91,  2676.90000,   706.00000
    871.36,  2660.60000,   694.30000
    871.81,  2680.40000,   692.60000
    872.27,  2708.00000,   695.80000
    872.72,  2710.30000,   703.50000
    873.18,  2700.20000,   713.10000
    873.63,  2677.60000,   701.20000
    874.08,  2672.70000,   695.70000
    874.54,  2690.30000,   698.60000
    874.99,  2696.80000,   692.60000
    875.44,  2673.30000,   702.10000
    875.90,  2647.70000,   711.60000
    876.35,  2649.10000,   713.30000
    876.81,  2683.90000,   710.90000
    877.26,  2715.80000,   711.00000
    877.71,  2703.40000,   701.00000
    878.17,  2666.70000,   699.20000
    878.62,  2687.70000,   697.10000
    879.07,  2711.60000,   706.90000
    879.53,  2741.40000,   704.30000
    879.98,  2734.20000,   709.70000
    880.43,  2709.40000,   714.70000
    880.89,  2687.00000,   715.00000
    881.34,  2694.70000,   707.60000
    881.79,  2704.10000,   711.50000
    882.25,  2695.50000,   710.00000
    882.70,  2673.30000,   714.50000
    883.15,  2660.70000,   717.00000
    883.61,  2677.70000,   709.00000
    884.06,  2658.80000,   706.00000
    884.51,  2679.50000,   705.20000
    884.97,  2666.50000,   707.80000
    885.42,  2681.90000,   710.90000
    885.87,  2685.60000,   710.90000
    886.32,  2707.70000,   709.20000
    886.78,  2679.40000,   708.30000
    887.23,  2690.10000,   708.40000
    887.68,  2676.10000,   702.70000
    888.14,  2685.40000,   704.40000
    888.59,  2669.90000,   706.10000
    889.04,  2654.30000,   707.50000
    889.50,  2626.00000,   707.30000
    889.95,  2649.30000,   710.80000
    890.40,  2675.40000,   706.30000
    890.85,  2696.60000,   711.20000
    891.31,  2689.30000,   719.70000
    891.76,  2689.10000,   715.90000
    892.21,  2670.10000,   727.20000
    892.67,  2681.00000,   729.30000
    893.12,  2673.60000,   728.30000
    893.57,  2685.20000,   718.50000
    894.02,  2696.50000,   717.40000
    894.48,  2718.90000,   712.20000
    894.93,  2713.80000,   711.40000
    895.38,  2713.30000,   712.40000
    895.83,  2683.30000,   718.20000
    896.29,  2682.50000,   721.30000
    896.74,  2674.00000,   730.50000
    897.19,  2692.50000,   730.80000
    897.64,  2700.80000,   725.00000
    898.10,  2708.90000,   723.80000
    898.55,  2686.80000,   726.00000
    899.00,  2681.70000,   727.70000
    899.45,  2647.20000,   730.10000
    899.91,  2638.40000,   734.70000
    900.36,  2624.00000,   739.30000
    900.81,  2660.40000,   734.40000
    901.26,  2676.70000,   734.40000
    901.72,  2699.30000,   732.30000
    902.17,  2695.40000,   723.90000
    902.62,  2692.70000,   733.30000
    903.07,  2658.40000,   737.20000
    903.52,  2670.80000,   739.10000
    903.98,  2672.20000,   752.80000
    904.43,  2682.70000,   752.90000
    904.88,  2682.10000,   741.00000
    905.33,  2687.30000,   736.40000
    905.79,  2670.10000,   732.80000
    906.24,  2673.10000,   731.00000
    906.69,  2684.80000,   737.40000
    907.14,  2687.10000,   737.20000
    907.59,  2657.00000,   739.00000
    908.05,  2634.50000,   749.70000
    908.50,  2616.00000,   758.40000
    908.95,  2624.20000,   759.50000
    909.40,  2644.40000,   760.90000
    909.85,  2647.20000,   759.40000
    910.31,  2655.30000,   749.90000
    910.76,  2639.70000,   754.70000
    911.21,  2625.40000,   755.90000
    911.66,  2623.20000,   757.10000
    912.11,  2618.70000,   769.00000
    912.56,  2635.70000,   775.30000
    913.02,  2665.40000,   772.60000
    913.47,  2662.00000,   773.60000
    913.92,  2659.20000,   780.10000
    914.37,  2652.70000,   778.30000
    914.82,  2652.70000,   785.40000
    915.27,  2664.00000,   790.50000
    915.73,  2683.10000,   801.20000
    916.18,  2665.30000,   811.80000
    916.63,  2650.80000,   835.10000
    917.08,  2616.10000,   847.70000
    917.53,  2657.80000,   846.50000
    917.98,  2545.30000,   845.20000
    918.44,  2888.40000,   854.30000
    918.89,  3067.60000,   855.90000
    919.34,  3122.80000,   868.50000
    919.79,  3024.70000,   883.20000
    920.24,  2866.70000,   888.20000
    920.69,  2544.20000,   898.60000
    921.14,  2676.70000,   910.90000
    921.59,  2671.70000,   926.00000
    922.05,  2671.90000,   943.70000
    922.50,  2667.10000,   966.40000
    922.95,  2684.10000,   989.50000
    923.40,  2698.00000,  1021.30000
    923.85,  2702.70000,  1056.80000
    924.30,  2705.00000,  1113.60000
    924.75,  2693.40000,  1171.30000
    925.20,  2676.30000,  1237.50000
    925.66,  2666.40000,  1316.30000
    926.11,  2662.90000,  1424.70000
    926.56,  2663.40000,  1556.40000
    927.01,  2678.20000,  1709.30000
    927.46,  2669.50000,  1874.00000
    927.91,  2642.00000,  2031.70000
    928.36,  2617.20000,  2225.70000
    928.81,  2629.40000,  2450.30000
    929.26,  2653.30000,  2731.40000
    929.71,  2690.60000,  3052.10000
    930.16,  2709.60000,  3371.20000
    930.62,  2680.60000,  3655.40000
    931.07,  2653.80000,  3962.40000
    931.52,  2647.40000,  4256.50000
    931.97,  2657.50000,  4575.00000
    932.42,  2676.80000,  4864.90000
    932.87,  2688.70000,  5090.00000
    933.32,  2669.10000,  5251.20000
    933.77,  2684.60000,  5414.40000
    934.22,  2675.00000,  5579.20000
    934.67,  2689.60000,  5787.80000
    935.12,  2684.50000,  5995.90000
    935.57,  2658.40000,  6138.90000
    936.02,  2625.50000,  6187.10000
    936.47,  2650.20000,  6143.80000
    936.93,  2629.30000,  6088.50000
    937.38,  2638.40000,  6118.20000
    937.83,  2647.60000,  6215.90000
    938.28,  2636.60000,  6305.00000
    938.73,  2635.80000,  6309.40000
    939.18,  2657.70000,  6269.20000
    939.63,  2659.40000,  6335.10000
    940.08,  2675.60000,  6543.10000
    940.53,  2692.10000,  6744.30000
    940.98,  2686.40000,  6887.20000
    941.43,  2664.80000,  7040.60000
    941.88,  2653.10000,  7267.90000
    942.33,  2658.90000,  7536.60000
    942.78,  2662.00000,  7760.00000
    943.23,  2679.70000,  7814.90000
    943.68,  2682.20000,  7804.80000
    944.13,  2686.50000,  7866.70000
    944.58,  2694.70000,  7986.00000
    945.03,  2686.00000,  8010.10000
    945.48,  2657.80000,  7934.70000
    945.93,  2652.90000,  7897.80000
    946.38,  2652.40000,  7987.40000
    946.83,  2684.70000,  8093.30000
    947.28,  2695.70000,  8182.10000
    947.73,  2691.70000,  8179.90000
    948.18,  2672.40000,  8162.40000
    948.63,  2657.30000,  8170.80000
    949.08,  2654.10000,  8142.40000
    949.53,  2642.90000,  8140.90000
    949.98,  2623.30000,  8214.70000
    950.43,  2634.30000,  8239.50000
    950.88,  2647.60000,  8270.50000
    951.33,  2660.60000,  8277.80000
    951.78,  2688.20000,  8142.80000
    952.23,  2688.60000,  7975.70000
    952.68,  2664.90000,  7897.10000
    953.13,  2664.60000,  7851.70000
    953.58,  2659.50000,  7788.50000
    954.03,  2649.40000,  7711.00000
    954.48,  2641.20000,  7592.80000
    954.93,  2641.80000,  7427.80000
    955.38,  2632.90000,  7370.70000
    955.83,  2643.10000,  7407.10000
    956.28,  2643.80000,  7338.10000
    956.73,  2658.50000,  7174.30000
    957.18,  2661.50000,  7077.10000
    957.62,  2651.50000,  7029.00000
    958.07,  2660.20000,  6993.60000
    958.52,  2646.30000,  6931.90000
    958.97,  2637.50000,  6742.60000
    959.42,  2638.60000,  6475.10000
    959.87,  2634.80000,  6257.70000
    960.32,  2637.40000,  6115.40000
    960.77,  2664.60000,  5983.10000
    961.22,  2702.70000,  5858.50000
    961.67,  2724.80000,  5707.00000
    962.12,  2697.80000,  5526.10000
    962.57,  2667.80000,  5346.70000
    963.02,  2669.90000,  5226.20000
    963.47,  2654.90000,  5101.80000
    963.92,  2678.80000,  4976.60000
    964.36,  2682.60000,  4864.70000
    964.81,  2667.20000,  4733.80000
    965.26,  2667.80000,  4606.50000
    965.71,  2673.80000,  4507.90000
    966.16,  2667.10000,  4433.10000
    966.61,  2659.90000,  4386.60000
    967.06,  2651.70000,  4328.50000
    967.51,  2663.40000,  4253.30000
    967.96,  2676.40000,  4171.50000
    968.41,  2678.70000,  4091.60000
    968.85,  2682.90000,  4019.60000
    969.30,  2671.90000,  3938.40000
    969.75,  2681.30000,  3793.30000
    970.20,  2677.60000,  3619.90000
    970.65,  2682.20000,  3446.60000
    971.10,  2669.20000,  3290.70000
    971.55,  2678.50000,  3132.20000
    972.00,  2665.20000,  2994.40000
    972.44,  2654.80000,  2879.10000
    972.89,  2669.50000,  2783.30000
    973.34,  2681.30000,  2715.20000
    973.79,  2678.60000,  2647.90000
    974.24,  2692.60000,  2561.80000
    974.69,  2672.80000,  2456.90000
    975.14,  2633.80000,  2372.70000
    975.59,  2645.80000,  2306.60000
    976.03,  2628.50000,  2285.80000
    976.48,  2623.20000,  2284.40000
    976.93,  2619.80000,  2309.30000
    977.38,  2623.00000,  2316.90000
    977.83,  2611.80000,  2304.60000
    978.28,  2626.20000,  2275.20000
    978.72,  2638.70000,  2257.60000
    979.17,  2659.70000,  2241.90000
    979.62,  2675.60000,  2229.80000
    980.07,  2684.70000,  2218.90000
    980.52,  2674.60000,  2226.20000
    980.97,  2645.90000,  2254.70000
    981.41,  2597.70000,  2290.70000
    981.86,  2582.20000,  2312.30000
    982.31,  2606.90000,  2306.00000
    982.76,  2622.90000,  2272.40000
    983.21,  2661.50000,  2221.30000
    983.66,  2663.60000,  2189.80000
    984.10,  2625.40000,  2145.00000
    984.55,  2615.90000,  2073.40000
    985.00,  2609.70000,  2017.60000
    985.45,  2587.80000,  1971.10000
    985.90,  2602.10000,  1945.10000
    986.34,  2616.90000,  1924.90000
    986.79,  2605.80000,  1864.50000
    987.24,  2608.90000,  1773.80000
    987.69,  2588.10000,  1707.80000
    988.14,  2586.40000,  1648.50000
    988.58,  2605.30000,  1603.60000
    989.03,  2625.90000,  1549.60000
    989.48,  2631.30000,  1486.50000
    989.93,  2629.00000,  1424.10000
    990.38,  2608.50000,  1389.50000
    990.82,  2616.80000,  1371.50000
    991.27,  2633.30000,  1357.30000
    991.72,  2656.60000,  1337.30000
    992.17,  2640.00000,  1316.70000
    992.61,  2636.60000,  1295.50000
    993.06,  2617.00000,  1253.20000
    993.51,  2637.60000,  1225.40000
    993.96,  2642.00000,  1197.70000
    994.41,  2632.00000,  1177.60000
    994.85,  2608.90000,  1158.30000
    995.30,  2624.90000,  1143.10000
    995.75,  2629.00000,  1115.10000
    996.20,  2666.50000,  1098.90000
    996.64,  2653.80000,  1087.30000
    997.09,  2618.90000,  1076.30000
    997.54,  2612.30000,  1056.50000
    997.99,  2607.10000,  1033.00000
    998.43,  2603.80000,  1031.20000
    998.88,  2599.30000,  1032.20000
    999.33,  2602.90000,  1027.90000
    999.77,  2626.20000,  1014.90000
   1000.22,  2649.00000,   999.80000
   1000.67,  2656.10000,   986.60000
   1001.12,  2654.30000,   984.40000
   1001.56,  2618.10000,   987.80000
   1002.01,  2600.30000,   982.50000
   1002.46,  2615.90000,   976.90000
   1002.91,  2604.20000,   969.60000
   1003.35,  2612.50000,   966.70000
   1003.80,  2643.10000,   923.80000
   1004.25,  2668.40000,   897.30000
   1004.69,  2678.50000,   888.90000
   1005.14,  2661.20000,   898.20000
   1005.59,  2635.00000,   925.90000
   1006.04,  2632.20000,   955.90000
   1006.48,  2654.60000,   946.10000
   1006.93,  2687.10000,   937.50000
   1007.38,  2678.50000,   937.60000
   1007.82,  2633.90000,   938.80000
   1008.27,  2606.30000,   945.10000
   1008.72,  2590.20000,   948.70000
   1009.16,  2580.90000,   961.60000
   1009.61,  2597.00000,   956.00000
   1010.06,  2595.50000,   956.90000
   1010.50,  2629.00000,   951.60000
   1010.95,  2654.20000,   947.60000
   1011.40,  2662.30000,   949.60000
   1011.85,  2633.40000,   966.30000
   1012.29,  2623.10000,   961.80000
   1012.74,  2592.30000,   963.90000
   1013.19,  2588.50000,   957.10000
   1013.63,  2632.30000,   948.70000
   1014.08,  2663.90000,   941.80000
   1014.53,  2664.40000,   938.30000
   1014.97,  2655.30000,   931.20000
   1015.42,  2634.50000,   927.40000
   1015.86,  2591.70000,   933.20000
   1016.31,  2610.00000,   947.50000
   1016.76,  2627.50000,   959.90000
   1017.20,  2617.90000,   966.10000
   1017.65,  2592.50000,   959.60000
   1018.10,  2597.60000,   943.80000
   1018.54,  2582.90000,   938.90000
   1018.99,  2603.80000,   949.50000
   1019.44,  2614.40000,   951.50000
   1019.88,  2611.50000,   953.10000
   1020.33,  2602.70000,   950.70000
   1020.78,  2616.50000,   936.60000
   1021.22,  2630.90000,   926.30000
   1021.67,  2638.60000,   927.60000
   1022.11,  2631.90000,   929.50000
   1022.56,  2628.00000,   941.70000
   1023.01,  2605.60000,   957.10000
   1023.45,  2586.20000,   956.00000
   1023.90,  2590.50000,   954.00000
   1024.34,  2576.70000,   946.10000
   1024.79,  2585.30000,   947.80000
   1025.24,  2604.70000,   953.00000
   1025.68,  2590.60000,   963.90000
   1026.13,  2585.30000,   964.50000
   1026.58,  2588.20000,   964.30000
   1027.02,  2607.70000,   953.40000
   1027.47,  2626.70000,   949.50000
   1027.91,  2632.20000,   951.40000
   1028.36,  2603.90000,   960.10000
   1028.80,  2594.40000,   964.60000
   1029.25,  2574.30000,   962.80000
   1029.70,  2585.30000,   953.90000
   1030.14,  2585.70000,   946.90000
   1030.59,  2578.20000,   951.00000
   1031.03,  2579.60000,   948.40000
   1031.48,  2587.10000,   967.10000
   1031.93,  2616.50000,   967.70000
   1032.37,  2642.80000,   969.00000
   1032.82,  2648.70000,   968.20000
   1033.26,  2653.70000,   963.70000
   1033.71,  2633.90000,   955.90000
   1034.15,  2615.90000,   960.70000
   1034.60,  2617.20000,   956.90000
   1035.05,  2624.60000,   968.90000
   1035.49,  2612.10000,   973.40000
   1035.94,  2615.10000,   971.10000
   1036.38,  2578.80000,   978.60000
   1036.83,  2561.00000,   970.10000
   1037.27,  2544.20000,   974.00000
   1037.72,  2545.80000,   980.60000
   1038.16,  2645.50000,   979.40000
   1038.61,  2722.50000,   974.60000
   1039.05,  2735.70000,   974.10000
   1039.50,  2724.40000,   981.90000
   1039.95,  2662.10000,   997.00000
   1040.39,  2588.40000,  1011.20000
   1040.84,  2594.60000,  1022.00000
   1041.28,  2591.50000,  1018.80000
   1041.73,  2589.30000,  1014.70000
   1042.17,  2598.20000,  1011.20000
   1042.62,  2604.10000,   993.90000
   1043.06,  2612.40000,   993.50000
   1043.51,  2591.60000,   996.50000
   1043.95,  2594.80000,  1007.50000
   1044.40,  2592.10000,  1025.00000
   1044.84,  2578.80000,  1032.70000
   1045.29,  2579.60000,  1029.30000
   1045.73,  2591.70000,  1027.00000
   1046.18,  2579.30000,  1020.10000
   1046.62,  2572.50000,  1023.40000
   1047.07,  2560.90000,  1032.70000
   1047.51,  2537.70000,  1038.40000
   1047.96,  2567.90000,  1038.90000
   1048.40,  2616.20000,  1034.20000
   1048.85,  2636.90000,  1031.90000
   1049.29,  2632.50000,  1036.20000
   1049.74,  2586.20000,  1044.60000
   1050.18,  2546.70000,  1047.00000
   1050.63,  2541.30000,  1045.60000
   1051.07,  2549.70000,  1050.90000
   1051.52,  2573.20000,  1041.00000
   1051.96,  2570.10000,  1045.20000
   1052.41,  2554.50000,  1044.70000
   1052.85,  2556.40000,  1054.70000
   1053.30,  2542.60000,  1064.80000
   1053.74,  2540.90000,  1072.70000
   1054.18,  2557.00000,  1054.50000
   1054.63,  2538.70000,  1062.00000
   1055.07,  2539.50000,  1056.60000
   1055.52,  2536.30000,  1058.50000
   1055.96,  2522.70000,  1070.60000
   1056.41,  2515.50000,  1073.70000
   1056.85,  2511.60000,  1074.00000
   1057.30,  2510.60000,  1085.60000
   1057.74,  2514.00000,  1089.50000
   1058.18,  2509.10000,  1092.40000
   1058.63,  2484.10000,  1101.40000
   1059.07,  2483.30000,  1103.90000
   1059.52,  2495.30000,  1104.80000
   1059.96,  2503.40000,  1103.20000
   1060.41,  2498.50000,  1116.00000
   1060.85,  2501.40000,  1121.60000
   1061.30,  2481.20000,  1130.70000
   1061.74,  2475.30000,  1132.00000
   1062.18,  2477.50000,  1126.80000
   1062.63,  2457.90000,  1125.50000
   1063.07,  2459.30000,  1126.40000
   1063.52,  2468.70000,  1125.10000
   1063.96,  2486.40000,  1129.10000
   1064.40,  2494.30000,  1133.20000
   1064.85,  2490.60000,  1134.40000
   1065.29,  2459.80000,  1146.70000
   1065.74,  2443.20000,  1148.50000
   1066.18,  2410.60000,  1153.10000
