2D Measure spectrum data V5.74

<< MEASURE 1 >>
Data count = 2048
Exposure time = 30000 msec
Average = 10
Inspected time = 2020/10/25 18:21

Wave-dcm-1,Dark spec.  ,Spectrum
    108.17,  2183.10000,   622.60000
    108.66,  2188.80000,   620.50000
    109.15,  2195.20000,   620.10000
    109.65,  2222.10000,   612.60000
    110.14,  2231.50000,   608.90000
    110.63,  2235.20000,   610.10000
    111.13,  2250.60000,   599.90000
    111.62,  2236.90000,   600.90000
    112.11,  2250.10000,   597.70000
    112.60,  2275.80000,   589.10000
    113.10,  2260.40000,   590.00000
    113.59,  2281.20000,   577.70000
    114.08,  2298.80000,   570.30000
    114.58,  2281.30000,   579.30000
    115.07,  2325.90000,   584.00000
    115.56,  2339.80000,   590.20000
    116.06,  2333.50000,   586.90000
    116.55,  2340.90000,   580.00000
    117.04,  2333.10000,   574.50000
    117.53,  2306.50000,   577.70000
    118.03,  2340.10000,   581.60000
    118.52,  2347.20000,   589.50000
    119.01,  2344.10000,   589.70000
    119.51,  2432.70000,   605.60000
    120.00,  2527.90000,   608.40000
    120.49,  2559.10000,   623.50000
    120.98,  2550.40000,   641.60000
    121.48,  2464.80000,   652.70000
    121.97,  2354.40000,   665.80000
    122.46,  2344.00000,   682.40000
    122.95,  2378.20000,   691.50000
    123.45,  2418.70000,   707.20000
    123.94,  2428.20000,   726.90000
    124.43,  2450.80000,   736.30000
    124.92,  2474.00000,   757.80000
    125.42,  2465.30000,   777.30000
    125.91,  2481.60000,   794.00000
    126.40,  2475.30000,   811.90000
    126.89,  2454.50000,   826.40000
    127.39,  2451.70000,   826.20000
    127.88,  2445.60000,   840.60000
    128.37,  2437.30000,   854.30000
    128.86,  2458.70000,   872.10000
    129.35,  2447.40000,   897.30000
    129.85,  2454.00000,   916.00000
    130.34,  2455.10000,   914.70000
    130.83,  2457.30000,   931.00000
    131.32,  2461.90000,   944.40000
    131.81,  2468.30000,   961.20000
    132.31,  2466.40000,   972.10000
    132.80,  2465.40000,   977.70000
    133.29,  2455.80000,   970.40000
    133.78,  2463.60000,   977.40000
    134.27,  2475.00000,   987.40000
    134.77,  2483.90000,   997.40000
    135.26,  2506.60000,  1012.10000
    135.75,  2498.50000,  1033.40000
    136.24,  2515.30000,  1046.60000
    136.73,  2501.30000,  1058.30000
    137.23,  2517.10000,  1060.20000
    137.72,  2512.20000,  1051.10000
    138.21,  2508.00000,  1061.50000
    138.70,  2492.70000,  1072.30000
    139.19,  2524.60000,  1086.00000
    139.68,  2514.70000,  1085.40000
    140.18,  2524.00000,  1085.00000
    140.67,  2530.40000,  1083.70000
    141.16,  2533.40000,  1089.70000
    141.65,  2515.70000,  1115.10000
    142.14,  2514.10000,  1142.10000
    142.63,  2537.30000,  1151.40000
    143.13,  2540.10000,  1166.20000
    143.62,  2576.00000,  1167.50000
    144.11,  2584.90000,  1164.00000
    144.60,  2543.40000,  1176.80000
    145.09,  2527.40000,  1182.70000
    145.58,  2582.70000,  1195.50000
    146.07,  2598.70000,  1201.20000
    146.56,  2608.90000,  1205.80000
    147.06,  2596.10000,  1223.80000
    147.55,  2561.30000,  1229.30000
    148.04,  2520.90000,  1236.90000
    148.53,  2558.70000,  1255.90000
    149.02,  2540.50000,  1263.10000
    149.51,  2613.70000,  1278.70000
    150.00,  2659.10000,  1310.30000
    150.49,  2672.50000,  1338.20000
    150.99,  2669.10000,  1372.50000
    151.48,  2650.00000,  1400.70000
    151.97,  2571.00000,  1425.10000
    152.46,  2585.30000,  1435.80000
    152.95,  2567.20000,  1445.80000
    153.44,  2561.00000,  1454.60000
    153.93,  2581.80000,  1460.80000
    154.42,  2603.90000,  1462.90000
    154.91,  2584.40000,  1468.60000
    155.40,  2574.30000,  1460.50000
    155.89,  2553.80000,  1463.90000
    156.39,  2566.70000,  1472.80000
    156.88,  2544.20000,  1481.50000
    157.37,  2553.70000,  1503.90000
    157.86,  2562.20000,  1517.20000
    158.35,  2570.50000,  1529.00000
    158.84,  2583.50000,  1551.70000
    159.33,  2630.90000,  1580.50000
    159.82,  2638.10000,  1598.00000
    160.31,  2647.50000,  1617.10000
    160.80,  2682.50000,  1621.20000
    161.29,  2633.60000,  1623.30000
    161.78,  2600.50000,  1627.40000
    162.27,  2573.00000,  1638.40000
    162.76,  2572.30000,  1645.10000
    163.25,  2588.30000,  1652.40000
    163.74,  2630.50000,  1661.30000
    164.23,  2631.20000,  1679.10000
    164.72,  2651.80000,  1699.40000
    165.21,  2619.10000,  1719.90000
    165.70,  2599.00000,  1735.80000
    166.20,  2632.70000,  1756.90000
    166.69,  2655.10000,  1772.60000
    167.18,  2666.50000,  1786.80000
    167.67,  2668.30000,  1788.10000
    168.16,  2641.40000,  1763.30000
    168.65,  2594.40000,  1743.00000
    169.14,  2620.30000,  1735.80000
    169.63,  2616.00000,  1731.10000
    170.12,  2606.70000,  1724.70000
    170.61,  2596.50000,  1722.40000
    171.10,  2653.20000,  1700.60000
    171.59,  2646.80000,  1704.90000
    172.08,  2661.00000,  1701.80000
    172.57,  2660.90000,  1703.40000
    173.06,  2660.00000,  1702.90000
    173.55,  2647.00000,  1701.30000
    174.04,  2634.60000,  1701.30000
    174.53,  2622.50000,  1713.30000
    175.02,  2622.80000,  1721.90000
    175.50,  2653.60000,  1726.40000
    175.99,  2688.20000,  1719.00000
    176.48,  2717.50000,  1700.00000
    176.97,  2690.30000,  1679.10000
    177.46,  2687.80000,  1665.40000
    177.95,  2658.40000,  1657.90000
    178.44,  2643.20000,  1653.10000
    178.93,  2622.90000,  1655.60000
    179.42,  2636.90000,  1664.10000
    179.91,  2647.40000,  1677.50000
    180.40,  2662.30000,  1694.10000
    180.89,  2665.40000,  1712.50000
    181.38,  2656.10000,  1724.20000
    181.87,  2648.60000,  1730.40000
    182.36,  2641.50000,  1736.40000
    182.85,  2611.40000,  1747.80000
    183.34,  2629.70000,  1746.40000
    183.83,  2635.10000,  1746.30000
    184.32,  2634.60000,  1730.00000
    184.81,  2677.60000,  1709.60000
    185.29,  2673.80000,  1699.60000
    185.78,  2646.00000,  1686.30000
    186.27,  2656.40000,  1672.50000
    186.76,  2648.30000,  1674.00000
    187.25,  2622.40000,  1672.90000
    187.74,  2690.50000,  1682.70000
    188.23,  2723.90000,  1685.20000
    188.72,  2749.20000,  1673.20000
    189.21,  2733.30000,  1669.00000
    189.70,  2697.20000,  1684.60000
    190.19,  2653.50000,  1702.60000
    190.67,  2643.70000,  1711.80000
    191.16,  2648.10000,  1715.70000
    191.65,  2654.30000,  1715.20000
    192.14,  2632.60000,  1724.10000
    192.63,  2651.60000,  1724.70000
    193.12,  2662.00000,  1729.40000
    193.61,  2655.20000,  1708.10000
    194.10,  2671.60000,  1706.70000
    194.59,  2673.80000,  1698.00000
    195.07,  2667.60000,  1705.30000
    195.56,  2683.90000,  1693.60000
    196.05,  2664.70000,  1695.00000
    196.54,  2655.70000,  1689.30000
    197.03,  2671.80000,  1697.30000
    197.52,  2712.70000,  1696.70000
    198.01,  2718.60000,  1699.10000
    198.49,  2721.40000,  1680.30000
    198.98,  2709.20000,  1673.40000
    199.47,  2667.60000,  1664.20000
    199.96,  2654.40000,  1664.10000
    200.45,  2669.40000,  1658.90000
    200.94,  2653.90000,  1647.50000
    201.43,  2661.30000,  1637.60000
    201.91,  2653.90000,  1639.30000
    202.40,  2637.00000,  1642.80000
    202.89,  2633.40000,  1648.00000
    203.38,  2646.60000,  1650.70000
    203.87,  2654.20000,  1643.50000
    204.36,  2653.60000,  1638.10000
    204.84,  2660.00000,  1635.30000
    205.33,  2677.50000,  1635.30000
    205.82,  2686.50000,  1632.00000
    206.31,  2679.60000,  1634.30000
    206.80,  2678.40000,  1638.10000
    207.28,  2686.60000,  1639.70000
    207.77,  2700.00000,  1646.30000
    208.26,  2711.00000,  1657.70000
    208.75,  2708.70000,  1651.40000
    209.24,  2688.00000,  1642.60000
    209.72,  2697.00000,  1646.70000
    210.21,  2708.30000,  1653.00000
    210.70,  2689.20000,  1662.80000
    211.19,  2706.10000,  1679.40000
    211.68,  2717.70000,  1684.90000
    212.16,  2722.30000,  1685.50000
    212.65,  2727.10000,  1693.00000
    213.14,  2703.10000,  1710.00000
    213.63,  2683.50000,  1714.70000
    214.12,  2667.50000,  1721.50000
    214.60,  2692.80000,  1723.60000
    215.09,  2714.50000,  1719.80000
    215.58,  2714.50000,  1726.60000
    216.07,  2704.60000,  1740.00000
    216.55,  2699.90000,  1751.80000
    217.04,  2630.20000,  1767.60000
    217.53,  2630.10000,  1777.70000
    218.02,  2631.50000,  1794.80000
    218.50,  2645.30000,  1812.70000
    218.99,  2662.90000,  1838.80000
    219.48,  2690.40000,  1852.20000
    219.97,  2658.40000,  1864.30000
    220.45,  2666.30000,  1880.00000
    220.94,  2665.00000,  1901.10000
    221.43,  2680.90000,  1910.80000
    221.92,  2695.50000,  1933.40000
    222.40,  2695.50000,  1945.40000
    222.89,  2688.20000,  1950.60000
    223.38,  2713.10000,  1951.90000
    223.86,  2731.30000,  1957.40000
    224.35,  2750.00000,  1961.20000
    224.84,  2746.10000,  1970.30000
    225.33,  2730.30000,  1979.50000
    225.81,  2701.40000,  1976.70000
    226.30,  2690.80000,  1961.50000
    226.79,  2685.00000,  1958.60000
    227.27,  2671.90000,  1954.20000
    227.76,  2670.00000,  1941.80000
    228.25,  2702.10000,  1923.60000
    228.74,  2715.00000,  1903.80000
    229.22,  2735.40000,  1878.60000
    229.71,  2729.10000,  1850.80000
    230.20,  2712.50000,  1820.10000
    230.68,  2712.90000,  1790.10000
    231.17,  2701.30000,  1761.70000
    231.66,  2675.50000,  1737.50000
    232.14,  2670.40000,  1717.80000
    232.63,  2654.40000,  1698.10000
    233.12,  2674.30000,  1686.50000
    233.60,  2702.50000,  1667.40000
    234.09,  2677.30000,  1648.80000
    234.58,  2666.80000,  1632.60000
    235.06,  2668.60000,  1620.20000
    235.55,  2660.40000,  1610.70000
    236.04,  2659.30000,  1594.60000
    236.52,  2675.20000,  1577.50000
    237.01,  2654.00000,  1561.90000
    237.50,  2691.70000,  1545.60000
    237.98,  2690.70000,  1533.60000
    238.47,  2748.40000,  1519.10000
    238.96,  2764.60000,  1499.30000
    239.44,  2753.20000,  1501.60000
    239.93,  2740.40000,  1508.80000
    240.41,  2699.20000,  1503.80000
    240.90,  2636.90000,  1501.80000
    241.39,  2661.30000,  1497.00000
    241.87,  2700.50000,  1488.60000
    242.36,  2709.30000,  1493.10000
    242.85,  2748.40000,  1495.40000
    243.33,  2743.20000,  1483.10000
    243.82,  2720.60000,  1478.60000
    244.30,  2698.40000,  1473.10000
    244.79,  2699.00000,  1472.10000
    245.28,  2681.30000,  1472.60000
    245.76,  2686.50000,  1460.90000
    246.25,  2678.10000,  1445.90000
    246.74,  2694.90000,  1450.70000
    247.22,  2720.70000,  1453.70000
    247.71,  2708.30000,  1462.70000
    248.19,  2694.40000,  1467.20000
    248.68,  2695.40000,  1454.80000
    249.16,  2659.70000,  1446.50000
    249.65,  2687.20000,  1457.60000
    250.14,  2706.00000,  1456.50000
    250.62,  2686.10000,  1460.00000
    251.11,  2665.90000,  1453.60000
    251.59,  2657.70000,  1435.60000
    252.08,  2642.40000,  1437.50000
    252.57,  2653.90000,  1448.60000
    253.05,  2660.90000,  1444.90000
    253.54,  2700.10000,  1442.30000
    254.02,  2720.00000,  1435.60000
    254.51,  2732.40000,  1424.00000
    254.99,  2724.50000,  1428.90000
    255.48,  2695.40000,  1432.50000
    255.96,  2673.20000,  1427.00000
    256.45,  2703.20000,  1417.20000
    256.94,  2706.40000,  1414.90000
    257.42,  2698.30000,  1418.40000
    257.91,  2693.80000,  1430.30000
    258.39,  2687.80000,  1437.30000
    258.88,  2673.10000,  1443.50000
    259.36,  2695.10000,  1443.20000
    259.85,  2698.00000,  1443.10000
    260.33,  2706.40000,  1452.30000
    260.82,  2725.60000,  1449.60000
    261.30,  2733.80000,  1447.40000
    261.79,  2712.80000,  1440.30000
    262.27,  2702.30000,  1427.10000
    262.76,  2692.70000,  1424.30000
    263.24,  2690.50000,  1434.00000
    263.73,  2713.40000,  1432.70000
    264.22,  2700.30000,  1449.90000
    264.70,  2761.40000,  1458.90000
    265.19,  2788.40000,  1458.50000
    265.67,  2785.20000,  1468.40000
    266.16,  2756.90000,  1470.70000
    266.64,  2729.90000,  1480.60000
    267.13,  2662.90000,  1488.10000
    267.61,  2672.10000,  1488.00000
    268.10,  2693.20000,  1480.60000
    268.58,  2693.20000,  1478.90000
    269.06,  2697.00000,  1470.70000
    269.55,  2715.20000,  1490.20000
    270.03,  2727.00000,  1489.90000
    270.52,  2728.20000,  1495.50000
    271.00,  2743.70000,  1491.50000
    271.49,  2738.90000,  1491.60000
    271.97,  2734.90000,  1499.70000
    272.46,  2737.60000,  1514.00000
    272.94,  2734.70000,  1523.00000
    273.43,  2727.90000,  1527.60000
    273.91,  2702.70000,  1535.50000
    274.40,  2687.30000,  1555.70000
    274.88,  2674.90000,  1571.10000
    275.37,  2678.20000,  1574.70000
    275.85,  2684.90000,  1576.10000
    276.33,  2690.60000,  1564.80000
    276.82,  2698.40000,  1573.30000
    277.30,  2703.60000,  1591.70000
    277.79,  2703.20000,  1593.80000
    278.27,  2709.50000,  1598.20000
    278.76,  2722.90000,  1612.10000
    279.24,  2727.90000,  1617.50000
    279.73,  2724.00000,  1623.60000
    280.21,  2716.00000,  1630.30000
    280.69,  2696.90000,  1633.80000
    281.18,  2698.80000,  1635.20000
    281.66,  2715.00000,  1648.10000
    282.15,  2756.40000,  1643.80000
    282.63,  2749.90000,  1645.70000
    283.11,  2736.30000,  1649.30000
    283.60,  2727.70000,  1659.40000
    284.08,  2734.80000,  1669.80000
    284.57,  2706.80000,  1672.20000
    285.05,  2708.80000,  1670.50000
    285.53,  2688.90000,  1661.20000
    286.02,  2668.80000,  1650.40000
    286.50,  2694.30000,  1645.30000
    286.99,  2711.10000,  1653.60000
    287.47,  2700.60000,  1646.80000
    287.95,  2689.80000,  1650.10000
    288.44,  2679.40000,  1642.30000
    288.92,  2678.30000,  1633.80000
    289.41,  2698.70000,  1623.20000
    289.89,  2721.20000,  1621.20000
    290.37,  2731.30000,  1605.80000
    290.86,  2753.80000,  1601.40000
    291.34,  2721.80000,  1600.80000
    291.82,  2710.40000,  1596.50000
    292.31,  2690.90000,  1590.20000
    292.79,  2703.80000,  1578.00000
    293.28,  2700.60000,  1568.40000
    293.76,  2712.60000,  1558.70000
    294.24,  2705.00000,  1553.20000
    294.73,  2720.30000,  1550.90000
    295.21,  2717.10000,  1553.70000
    295.69,  2727.40000,  1548.60000
    296.18,  2706.20000,  1535.70000
    296.66,  2674.50000,  1510.60000
    297.14,  2672.90000,  1496.30000
    297.63,  2681.70000,  1490.20000
    298.11,  2694.40000,  1491.10000
    298.59,  2729.10000,  1492.60000
    299.08,  2739.10000,  1478.20000
    299.56,  2738.60000,  1464.00000
    300.04,  2756.30000,  1455.10000
    300.53,  2756.90000,  1445.60000
    301.01,  2752.50000,  1436.30000
    301.49,  2747.90000,  1424.50000
    301.98,  2721.00000,  1397.50000
    302.46,  2694.00000,  1385.20000
    302.94,  2689.80000,  1381.50000
    303.42,  2691.50000,  1377.70000
    303.91,  2675.00000,  1374.40000
    304.39,  2658.50000,  1368.50000
    304.87,  2663.20000,  1353.20000
    305.36,  2681.90000,  1350.20000
    305.84,  2717.30000,  1348.70000
    306.32,  2761.80000,  1332.60000
    306.81,  2748.50000,  1317.30000
    307.29,  2721.10000,  1304.30000
    307.77,  2708.10000,  1299.00000
    308.25,  2703.70000,  1303.60000
    308.74,  2719.10000,  1299.90000
    309.22,  2712.90000,  1293.30000
    309.70,  2693.70000,  1292.80000
    310.18,  2682.10000,  1288.90000
    310.67,  2694.40000,  1283.90000
    311.15,  2712.80000,  1279.90000
    311.63,  2737.40000,  1270.30000
    312.12,  2741.10000,  1270.70000
    312.60,  2713.10000,  1268.30000
    313.08,  2686.20000,  1270.50000
    313.56,  2667.80000,  1269.00000
    314.05,  2658.40000,  1265.80000
    314.53,  2676.40000,  1259.60000
    315.01,  2733.60000,  1254.40000
    315.49,  2740.40000,  1240.20000
    315.98,  2745.20000,  1236.40000
    316.46,  2720.80000,  1230.70000
    316.94,  2675.00000,  1231.90000
    317.42,  2658.10000,  1231.10000
    317.90,  2661.30000,  1238.80000
    318.39,  2648.10000,  1238.00000
    318.87,  2693.50000,  1241.20000
    319.35,  2717.60000,  1236.60000
    319.83,  2723.90000,  1231.60000
    320.32,  2743.20000,  1219.90000
    320.80,  2754.20000,  1211.30000
    321.28,  2715.80000,  1203.80000
    321.76,  2746.50000,  1207.20000
    322.24,  2744.50000,  1204.20000
    322.73,  2752.40000,  1210.20000
    323.21,  2760.20000,  1206.30000
    323.69,  2769.30000,  1195.80000
    324.17,  2725.40000,  1185.90000
    324.65,  2698.10000,  1192.80000
    325.14,  2704.10000,  1193.70000
    325.62,  2714.00000,  1207.80000
    326.10,  2755.60000,  1214.60000
    326.58,  2771.30000,  1213.70000
    327.06,  2730.80000,  1214.30000
    327.55,  2741.60000,  1216.20000
    328.03,  2768.20000,  1210.20000
    328.51,  2772.90000,  1206.20000
    328.99,  2782.40000,  1203.90000
    329.47,  2769.30000,  1200.50000
    329.95,  2698.40000,  1206.80000
    330.44,  2710.60000,  1206.10000
    330.92,  2684.40000,  1200.10000
    331.40,  2663.20000,  1202.00000
    331.88,  2651.90000,  1197.80000
    332.36,  2667.20000,  1188.40000
    332.84,  2696.30000,  1187.70000
    333.33,  2743.60000,  1186.30000
    333.81,  2746.40000,  1190.80000
    334.29,  2750.40000,  1193.00000
    334.77,  2746.80000,  1182.80000
    335.25,  2732.30000,  1175.30000
    335.73,  2742.40000,  1171.60000
    336.21,  2740.10000,  1166.20000
    336.69,  2730.20000,  1160.20000
    337.18,  2723.10000,  1155.90000
    337.66,  2699.90000,  1154.40000
    338.14,  2668.80000,  1166.20000
    338.62,  2659.70000,  1161.30000
    339.10,  2691.70000,  1155.90000
    339.58,  2746.40000,  1140.90000
    340.06,  2762.70000,  1136.30000
    340.54,  2765.60000,  1137.20000
    341.03,  2743.20000,  1146.60000
    341.51,  2710.50000,  1144.50000
    341.99,  2708.50000,  1153.40000
    342.47,  2721.60000,  1150.90000
    342.95,  2711.30000,  1155.50000
    343.43,  2711.00000,  1156.20000
    343.91,  2708.60000,  1150.30000
    344.39,  2692.70000,  1133.50000
    344.87,  2671.40000,  1135.00000
    345.35,  2685.60000,  1127.80000
    345.84,  2696.20000,  1135.60000
    346.32,  2747.20000,  1138.10000
    346.80,  2764.50000,  1146.30000
    347.28,  2764.10000,  1141.00000
    347.76,  2725.00000,  1147.40000
    348.24,  2723.00000,  1132.60000
    348.72,  2745.80000,  1122.10000
    349.20,  2773.30000,  1114.40000
    349.68,  2753.80000,  1132.50000
    350.16,  2722.80000,  1149.50000
    350.64,  2674.60000,  1160.90000
    351.12,  2667.80000,  1154.90000
    351.60,  2724.70000,  1144.80000
    352.08,  2768.10000,  1134.50000
    352.56,  2789.30000,  1135.40000
    353.04,  2787.00000,  1132.00000
    353.53,  2755.20000,  1135.50000
    354.01,  2730.10000,  1140.00000
    354.49,  2739.00000,  1146.80000
    354.97,  2740.40000,  1146.60000
    355.45,  2741.50000,  1148.20000
    355.93,  2723.20000,  1143.70000
    356.41,  2728.00000,  1154.40000
    356.89,  2717.90000,  1147.80000
    357.37,  2728.00000,  1145.30000
    357.85,  2709.10000,  1136.70000
    358.33,  2698.60000,  1132.40000
    358.81,  2677.40000,  1135.00000
    359.29,  2682.10000,  1153.40000
    359.77,  2704.70000,  1152.90000
    360.25,  2732.30000,  1149.90000
    360.73,  2729.30000,  1144.80000
    361.21,  2721.30000,  1141.30000
    361.69,  2728.40000,  1142.20000
    362.17,  2725.50000,  1148.00000
    362.65,  2737.80000,  1144.50000
    363.13,  2744.80000,  1137.00000
    363.61,  2749.00000,  1143.30000
    364.09,  2720.00000,  1145.40000
    364.57,  2711.70000,  1159.90000
    365.05,  2711.70000,  1159.80000
    365.53,  2692.40000,  1150.30000
    366.01,  2710.70000,  1143.00000
    366.49,  2751.10000,  1143.80000
    366.97,  2717.30000,  1137.70000
    367.45,  2734.40000,  1147.90000
    367.93,  2764.90000,  1146.10000
    368.41,  2750.30000,  1147.40000
    368.89,  2750.40000,  1150.20000
    369.37,  2754.20000,  1151.30000
    369.85,  2700.60000,  1149.60000
    370.33,  2719.50000,  1156.00000
    370.80,  2733.40000,  1157.20000
    371.28,  2736.90000,  1156.90000
    371.76,  2710.20000,  1161.80000
    372.24,  2698.10000,  1163.50000
    372.72,  2702.40000,  1159.70000
    373.20,  2720.30000,  1168.10000
    373.68,  2744.00000,  1166.50000
    374.16,  2769.70000,  1163.30000
    374.64,  2744.10000,  1169.30000
    375.12,  2722.90000,  1163.60000
    375.60,  2751.40000,  1163.70000
    376.08,  2724.70000,  1170.20000
    376.56,  2713.20000,  1174.30000
    377.04,  2706.60000,  1181.40000
    377.52,  2711.40000,  1188.50000
    377.99,  2712.80000,  1180.30000
    378.47,  2748.80000,  1179.50000
    378.95,  2732.20000,  1183.90000
    379.43,  2749.20000,  1178.50000
    379.91,  2744.50000,  1184.30000
    380.39,  2787.90000,  1181.10000
    380.87,  2810.10000,  1189.30000
    381.35,  2797.50000,  1197.70000
    381.83,  2766.10000,  1202.10000
    382.31,  2732.50000,  1198.70000
    382.79,  2691.00000,  1201.00000
    383.26,  2706.00000,  1197.60000
    383.74,  2710.70000,  1216.00000
    384.22,  2703.30000,  1227.70000
    384.70,  2709.60000,  1232.40000
    385.18,  2679.80000,  1231.60000
    385.66,  2686.00000,  1220.30000
    386.14,  2695.50000,  1208.90000
    386.62,  2712.40000,  1204.80000
    387.09,  2731.10000,  1212.70000
    387.57,  2749.00000,  1216.50000
    388.05,  2739.90000,  1219.70000
    388.53,  2737.10000,  1214.00000
    389.01,  2736.90000,  1220.00000
    389.49,  2749.40000,  1227.40000
    389.97,  2749.20000,  1238.10000
    390.44,  2742.10000,  1241.30000
    390.92,  2721.30000,  1246.10000
    391.40,  2708.90000,  1234.70000
    391.88,  2708.90000,  1240.00000
    392.36,  2714.30000,  1236.20000
    392.84,  2716.70000,  1232.70000
    393.32,  2728.20000,  1232.20000
    393.79,  2717.00000,  1234.50000
    394.27,  2770.40000,  1232.30000
    394.75,  2771.70000,  1245.80000
    395.23,  2768.80000,  1244.40000
    395.71,  2753.30000,  1243.00000
    396.18,  2754.40000,  1237.30000
    396.66,  2759.90000,  1239.10000
    397.14,  2795.50000,  1232.30000
    397.62,  2753.60000,  1245.00000
    398.10,  2746.50000,  1242.70000
    398.58,  2731.70000,  1242.00000
    399.05,  2744.80000,  1235.70000
    399.53,  2757.90000,  1240.00000
    400.01,  2752.70000,  1231.30000
    400.49,  2719.60000,  1233.40000
    400.97,  2702.90000,  1228.30000
    401.44,  2675.30000,  1223.10000
    401.92,  2710.20000,  1210.90000
    402.40,  2717.00000,  1218.60000
    402.88,  2739.80000,  1221.60000
    403.36,  2751.40000,  1220.20000
    403.83,  2763.00000,  1223.70000
    404.31,  2725.40000,  1226.80000
    404.79,  2730.60000,  1223.60000
    405.27,  2706.50000,  1232.10000
    405.74,  2693.70000,  1230.30000
    406.22,  2722.30000,  1224.80000
    406.70,  2747.10000,  1221.90000
    407.18,  2735.10000,  1207.60000
    407.65,  2722.80000,  1186.00000
    408.13,  2694.60000,  1172.90000
    408.61,  2701.40000,  1171.10000
    409.09,  2717.80000,  1182.40000
    409.56,  2718.80000,  1202.80000
    410.04,  2732.80000,  1200.40000
    410.52,  2724.80000,  1188.60000
    411.00,  2701.50000,  1176.70000
    411.47,  2697.80000,  1171.40000
    411.95,  2680.10000,  1167.40000
    412.43,  2673.80000,  1179.10000
    412.91,  2679.00000,  1176.60000
    413.38,  2694.30000,  1173.40000
    413.86,  2712.40000,  1168.50000
    414.34,  2716.50000,  1164.10000
    414.82,  2728.30000,  1160.20000
    415.29,  2723.20000,  1166.50000
    415.77,  2738.80000,  1158.70000
    416.25,  2736.90000,  1148.60000
    416.72,  2740.80000,  1135.40000
    417.20,  2727.50000,  1129.50000
    417.68,  2696.30000,  1133.00000
    418.16,  2684.00000,  1141.10000
    418.63,  2711.90000,  1146.60000
    419.11,  2711.20000,  1147.30000
    419.59,  2722.00000,  1139.60000
    420.06,  2697.30000,  1135.70000
    420.54,  2666.50000,  1122.30000
    421.02,  2680.20000,  1115.50000
    421.50,  2703.10000,  1124.60000
    421.97,  2712.90000,  1127.20000
    422.45,  2709.90000,  1130.50000
    422.93,  2701.30000,  1130.50000
    423.40,  2681.40000,  1119.80000
    423.88,  2676.40000,  1120.00000
    424.36,  2679.60000,  1124.90000
    424.83,  2693.80000,  1118.60000
    425.31,  2718.30000,  1117.80000
    425.79,  2768.50000,  1117.70000
    426.26,  2811.40000,  1109.90000
    426.74,  2789.70000,  1109.60000
    427.22,  2772.90000,  1107.20000
    427.69,  2752.90000,  1101.60000
    428.17,  2728.50000,  1102.50000
    428.65,  2706.30000,  1111.70000
    429.12,  2742.40000,  1116.90000
    429.60,  2725.50000,  1113.60000
    430.08,  2741.60000,  1110.30000
    430.55,  2749.60000,  1106.10000
    431.03,  2748.40000,  1097.20000
    431.50,  2735.20000,  1108.00000
    431.98,  2726.50000,  1115.00000
    432.46,  2728.60000,  1106.40000
    432.93,  2710.90000,  1099.10000
    433.41,  2696.30000,  1092.00000
    433.89,  2695.20000,  1089.10000
    434.36,  2697.60000,  1096.20000
    434.84,  2691.90000,  1098.80000
    435.31,  2716.20000,  1094.60000
    435.79,  2713.40000,  1090.00000
    436.27,  2705.00000,  1093.20000
    436.74,  2705.50000,  1093.30000
    437.22,  2710.30000,  1095.00000
    437.70,  2709.70000,  1092.80000
    438.17,  2705.70000,  1086.10000
    438.65,  2698.90000,  1082.60000
    439.12,  2705.10000,  1093.60000
    439.60,  2705.60000,  1095.90000
    440.08,  2724.00000,  1095.60000
    440.55,  2718.80000,  1087.50000
    441.03,  2732.40000,  1075.90000
    441.50,  2727.80000,  1064.20000
    441.98,  2742.90000,  1063.30000
    442.45,  2723.20000,  1074.00000
    442.93,  2715.10000,  1087.20000
    443.41,  2700.80000,  1102.40000
    443.88,  2704.50000,  1107.10000
    444.36,  2696.70000,  1104.40000
    444.83,  2710.30000,  1082.40000
    445.31,  2709.40000,  1071.70000
    445.78,  2688.80000,  1064.70000
    446.26,  2688.60000,  1067.40000
    446.74,  2680.00000,  1082.50000
    447.21,  2699.50000,  1097.00000
    447.69,  2726.00000,  1093.50000
    448.16,  2748.70000,  1095.20000
    448.64,  2727.80000,  1089.80000
    449.11,  2703.00000,  1100.90000
    449.59,  2698.30000,  1113.50000
    450.06,  2706.50000,  1105.90000
    450.54,  2714.80000,  1097.40000
    451.02,  2749.20000,  1089.30000
    451.49,  2754.20000,  1083.40000
    451.97,  2745.00000,  1088.10000
    452.44,  2731.80000,  1093.40000
    452.92,  2716.10000,  1085.00000
    453.39,  2694.20000,  1091.50000
    453.87,  2705.40000,  1089.00000
    454.34,  2712.50000,  1085.20000
    454.82,  2727.70000,  1077.20000
    455.29,  2740.00000,  1075.90000
    455.77,  2745.40000,  1074.90000
    456.24,  2709.10000,  1091.30000
    456.72,  2683.10000,  1100.20000
    457.19,  2675.00000,  1107.90000
    457.67,  2691.60000,  1105.20000
    458.14,  2721.70000,  1105.40000
    458.62,  2727.50000,  1100.70000
    459.09,  2716.70000,  1100.40000
    459.57,  2691.70000,  1101.60000
    460.04,  2698.80000,  1099.60000
    460.52,  2701.00000,  1100.80000
    460.99,  2695.20000,  1101.00000
    461.47,  2689.90000,  1095.10000
    461.94,  2673.80000,  1083.20000
    462.42,  2673.50000,  1074.40000
    462.89,  2700.20000,  1068.40000
    463.37,  2718.30000,  1075.90000
    463.84,  2726.50000,  1077.60000
    464.32,  2732.10000,  1081.30000
    464.79,  2724.90000,  1087.10000
    465.26,  2723.30000,  1094.30000
    465.74,  2708.20000,  1094.70000
    466.21,  2720.60000,  1095.10000
    466.69,  2731.90000,  1086.70000
    467.16,  2737.10000,  1084.30000
    467.64,  2723.10000,  1085.30000
    468.11,  2709.00000,  1087.80000
    468.59,  2705.00000,  1081.40000
    469.06,  2715.90000,  1084.10000
    469.54,  2738.30000,  1092.40000
    470.01,  2734.10000,  1107.00000
    470.48,  2692.30000,  1108.00000
    470.96,  2707.40000,  1100.60000
    471.43,  2731.30000,  1091.40000
    471.91,  2754.80000,  1082.90000
    472.38,  2792.50000,  1077.70000
    472.86,  2761.80000,  1085.20000
    473.33,  2708.70000,  1079.40000
    473.80,  2701.70000,  1077.10000
    474.28,  2709.40000,  1081.30000
    474.75,  2720.50000,  1089.70000
    475.23,  2760.50000,  1093.40000
    475.70,  2752.40000,  1105.60000
    476.17,  2723.00000,  1107.60000
    476.65,  2716.00000,  1106.10000
    477.12,  2719.20000,  1102.50000
    477.60,  2682.30000,  1101.30000
    478.07,  2692.80000,  1095.10000
    478.54,  2714.00000,  1092.20000
    479.02,  2723.90000,  1090.10000
    479.49,  2752.20000,  1087.90000
    479.97,  2754.90000,  1092.40000
    480.44,  2739.80000,  1094.20000
    480.91,  2707.40000,  1099.60000
    481.39,  2698.70000,  1102.20000
    481.86,  2696.10000,  1100.30000
    482.34,  2683.70000,  1100.70000
    482.81,  2696.40000,  1101.70000
    483.28,  2724.90000,  1099.90000
    483.76,  2709.80000,  1102.10000
    484.23,  2732.50000,  1096.20000
    484.70,  2721.20000,  1085.10000
    485.18,  2715.90000,  1080.10000
    485.65,  2714.20000,  1081.90000
    486.12,  2714.40000,  1082.50000
    486.60,  2691.80000,  1095.00000
    487.07,  2697.30000,  1106.70000
    487.55,  2718.30000,  1103.30000
    488.02,  2740.40000,  1106.40000
    488.49,  2738.90000,  1105.60000
    488.97,  2756.10000,  1094.40000
    489.44,  2752.90000,  1085.60000
    489.91,  2716.10000,  1083.30000
    490.39,  2709.40000,  1074.60000
    490.86,  2668.40000,  1077.20000
    491.33,  2637.00000,  1077.50000
    491.81,  2678.70000,  1084.50000
    492.28,  2724.10000,  1089.20000
    492.75,  2717.10000,  1090.90000
    493.23,  2765.70000,  1082.10000
    493.70,  2785.20000,  1072.00000
    494.17,  2778.80000,  1068.80000
    494.64,  2777.40000,  1069.90000
    495.12,  2742.10000,  1073.70000
    495.59,  2731.70000,  1075.60000
    496.06,  2759.30000,  1073.80000
    496.54,  2781.40000,  1071.30000
    497.01,  2761.40000,  1076.80000
    497.48,  2747.20000,  1077.20000
    497.96,  2723.40000,  1083.20000
    498.43,  2749.40000,  1082.20000
    498.90,  2745.60000,  1084.90000
    499.37,  2769.90000,  1079.30000
    499.85,  2743.40000,  1077.70000
    500.32,  2737.80000,  1073.40000
    500.79,  2723.40000,  1074.10000
    501.27,  2736.10000,  1071.00000
    501.74,  2721.30000,  1076.10000
    502.21,  2719.30000,  1067.90000
    502.68,  2706.60000,  1070.30000
    503.16,  2694.10000,  1077.00000
    503.63,  2680.80000,  1086.50000
    504.10,  2699.40000,  1083.60000
    504.57,  2688.40000,  1075.90000
    505.05,  2711.50000,  1057.10000
    505.52,  2733.00000,  1056.20000
    505.99,  2729.90000,  1063.10000
    506.46,  2722.50000,  1073.10000
    506.94,  2711.70000,  1078.60000
    507.41,  2690.40000,  1089.30000
    507.88,  2694.70000,  1091.20000
    508.35,  2690.70000,  1090.00000
    508.83,  2687.40000,  1075.10000
    509.30,  2723.00000,  1064.90000
    509.77,  2729.40000,  1064.80000
    510.24,  2728.60000,  1069.70000
    510.72,  2707.50000,  1072.70000
    511.19,  2695.40000,  1065.90000
    511.66,  2689.30000,  1069.10000
    512.13,  2709.80000,  1073.50000
    512.60,  2694.50000,  1076.20000
    513.08,  2685.40000,  1078.00000
    513.55,  2684.50000,  1067.10000
    514.02,  2683.40000,  1050.60000
    514.49,  2688.80000,  1052.50000
    514.97,  2699.80000,  1053.60000
    515.44,  2714.60000,  1054.00000
    515.91,  2703.60000,  1066.40000
    516.38,  2709.80000,  1064.30000
    516.85,  2676.00000,  1068.80000
    517.33,  2653.20000,  1074.20000
    517.80,  2656.70000,  1067.60000
    518.27,  2677.60000,  1059.60000
    518.74,  2716.80000,  1054.70000
    519.21,  2748.40000,  1053.10000
    519.68,  2725.80000,  1058.50000
    520.16,  2699.50000,  1065.40000
    520.63,  2684.00000,  1068.10000
    521.10,  2675.40000,  1060.50000
    521.57,  2703.70000,  1053.20000
    522.04,  2709.30000,  1060.20000
    522.52,  2707.80000,  1056.20000
    522.99,  2694.70000,  1062.20000
    523.46,  2710.80000,  1067.80000
    523.93,  2720.00000,  1062.60000
    524.40,  2748.90000,  1059.80000
    524.87,  2734.20000,  1066.10000
    525.34,  2727.20000,  1057.50000
    525.82,  2709.70000,  1063.40000
    526.29,  2720.50000,  1056.20000
    526.76,  2712.60000,  1069.90000
    527.23,  2730.20000,  1066.50000
    527.70,  2701.90000,  1072.70000
    528.17,  2697.70000,  1070.80000
    528.64,  2683.40000,  1079.50000
    529.12,  2689.60000,  1076.10000
    529.59,  2692.60000,  1084.00000
    530.06,  2705.80000,  1070.50000
    530.53,  2742.80000,  1070.60000
    531.00,  2729.40000,  1056.70000
    531.47,  2685.00000,  1059.80000
    531.94,  2672.70000,  1066.10000
    532.41,  2666.80000,  1070.40000
    532.89,  2686.30000,  1073.70000
    533.36,  2740.00000,  1087.70000
    533.83,  2727.10000,  1087.70000
    534.30,  2712.70000,  1094.20000
    534.77,  2720.70000,  1096.80000
    535.24,  2726.30000,  1097.40000
    535.71,  2724.40000,  1100.30000
    536.18,  2728.30000,  1105.20000
    536.65,  2718.10000,  1109.80000
    537.13,  2701.20000,  1100.80000
    537.60,  2680.20000,  1106.20000
    538.07,  2683.50000,  1107.20000
    538.54,  2674.60000,  1108.40000
    539.01,  2695.00000,  1113.60000
    539.48,  2728.80000,  1118.20000
    539.95,  2744.80000,  1113.20000
    540.42,  2746.10000,  1125.30000
    540.89,  2731.40000,  1130.00000
    541.36,  2709.90000,  1123.00000
    541.83,  2704.00000,  1125.00000
    542.30,  2705.80000,  1119.60000
    542.77,  2711.00000,  1122.40000
    543.25,  2733.30000,  1130.30000
    543.72,  2731.80000,  1145.20000
    544.19,  2728.70000,  1143.00000
    544.66,  2707.00000,  1151.60000
    545.13,  2698.80000,  1146.10000
    545.60,  2679.60000,  1146.30000
    546.07,  2709.80000,  1148.20000
    546.54,  2722.70000,  1153.70000
    547.01,  2728.30000,  1155.10000
    547.48,  2729.90000,  1164.50000
    547.95,  2722.90000,  1166.30000
    548.42,  2701.70000,  1169.50000
    548.89,  2732.20000,  1176.80000
    549.36,  2712.60000,  1189.10000
    549.83,  2698.50000,  1187.10000
    550.30,  2747.40000,  1185.30000
    550.77,  2749.60000,  1182.80000
    551.24,  2757.80000,  1176.60000
    551.71,  2773.20000,  1183.50000
    552.18,  2729.20000,  1200.80000
    552.65,  2674.10000,  1210.30000
    553.12,  2699.20000,  1216.50000
    553.59,  2706.20000,  1215.30000
    554.06,  2715.50000,  1216.90000
    554.53,  2730.60000,  1212.50000
    555.00,  2722.60000,  1200.50000
    555.47,  2709.40000,  1194.50000
    555.94,  2705.30000,  1193.00000
    556.41,  2700.60000,  1197.60000
    556.88,  2675.00000,  1214.20000
    557.35,  2669.00000,  1228.60000
    557.82,  2664.00000,  1234.90000
    558.29,  2678.40000,  1230.60000
    558.76,  2723.00000,  1229.20000
    559.23,  2743.10000,  1222.50000
    559.70,  2742.00000,  1220.20000
    560.17,  2729.20000,  1226.50000
    560.64,  2717.00000,  1237.60000
    561.11,  2696.30000,  1234.20000
    561.58,  2718.20000,  1240.50000
    562.05,  2710.60000,  1236.30000
    562.52,  2719.70000,  1241.70000
    562.99,  2722.00000,  1239.50000
    563.46,  2729.70000,  1239.80000
    563.93,  2713.40000,  1238.00000
    564.40,  2718.90000,  1226.70000
    564.87,  2725.00000,  1220.00000
    565.34,  2748.90000,  1226.50000
    565.81,  2746.20000,  1220.60000
    566.28,  2737.10000,  1221.40000
    566.74,  2711.30000,  1224.60000
    567.21,  2697.40000,  1222.40000
    567.68,  2705.90000,  1230.10000
    568.15,  2705.30000,  1234.10000
    568.62,  2699.60000,  1230.50000
    569.09,  2697.30000,  1232.10000
    569.56,  2692.70000,  1225.50000
    570.03,  2691.80000,  1225.40000
    570.50,  2722.30000,  1234.30000
    570.97,  2719.10000,  1232.70000
    571.44,  2717.30000,  1227.40000
    571.91,  2724.30000,  1230.40000
    572.38,  2718.50000,  1231.00000
    572.84,  2704.30000,  1233.70000
    573.31,  2711.40000,  1246.00000
    573.78,  2702.80000,  1237.20000
    574.25,  2698.50000,  1223.90000
    574.72,  2717.90000,  1215.10000
    575.19,  2711.30000,  1215.70000
    575.66,  2707.80000,  1219.60000
    576.13,  2700.20000,  1229.00000
    576.60,  2707.80000,  1235.70000
    577.07,  2733.80000,  1239.80000
    577.53,  2760.80000,  1231.50000
    578.00,  2754.70000,  1227.40000
    578.47,  2748.50000,  1213.00000
    578.94,  2719.40000,  1206.70000
    579.41,  2687.50000,  1206.60000
    579.88,  2701.50000,  1210.70000
    580.35,  2707.00000,  1212.60000
    580.82,  2710.10000,  1214.70000
    581.28,  2730.20000,  1216.40000
    581.75,  2732.40000,  1206.70000
    582.22,  2720.60000,  1200.80000
    582.69,  2733.30000,  1201.20000
    583.16,  2735.70000,  1200.50000
    583.63,  2726.00000,  1190.80000
    584.10,  2748.00000,  1204.50000
    584.56,  2762.20000,  1203.50000
    585.03,  2748.30000,  1219.00000
    585.50,  2740.90000,  1223.60000
    585.97,  2716.20000,  1210.90000
    586.44,  2711.50000,  1194.60000
    586.91,  2721.30000,  1203.40000
    587.37,  2717.80000,  1207.30000
    587.84,  2694.80000,  1221.80000
    588.31,  2683.00000,  1223.90000
    588.78,  2661.30000,  1218.70000
    589.25,  2699.20000,  1217.20000
    589.72,  2700.90000,  1205.40000
    590.18,  2723.90000,  1205.10000
    590.65,  2744.60000,  1201.10000
    591.12,  2737.00000,  1195.10000
    591.59,  2732.50000,  1203.60000
    592.06,  2717.20000,  1205.40000
    592.52,  2674.40000,  1194.00000
    592.99,  2685.50000,  1201.40000
    593.46,  2683.40000,  1201.70000
    593.93,  2650.60000,  1197.60000
    594.40,  2672.20000,  1201.30000
    594.86,  2696.30000,  1198.10000
    595.33,  2707.00000,  1193.90000
    595.80,  2728.50000,  1193.90000
    596.27,  2734.20000,  1188.10000
    596.74,  2714.90000,  1185.60000
    597.20,  2703.30000,  1186.60000
    597.67,  2710.90000,  1196.70000
    598.14,  2688.90000,  1202.30000
    598.61,  2682.20000,  1200.20000
    599.07,  2693.10000,  1186.50000
    599.54,  2685.80000,  1180.30000
    600.01,  2675.20000,  1178.30000
    600.48,  2729.40000,  1183.70000
    600.95,  2757.90000,  1186.30000
    601.41,  2768.90000,  1186.10000
    601.88,  2749.50000,  1191.50000
    602.35,  2690.10000,  1188.20000
    602.82,  2637.60000,  1180.50000
    603.28,  2656.30000,  1172.10000
    603.75,  2658.10000,  1163.80000
    604.22,  2682.80000,  1161.90000
    604.69,  2692.30000,  1173.10000
    605.15,  2707.30000,  1166.80000
    605.62,  2705.50000,  1167.60000
    606.09,  2707.40000,  1169.70000
    606.56,  2684.20000,  1173.80000
    607.02,  2677.40000,  1175.40000
    607.49,  2669.50000,  1168.70000
    607.96,  2696.10000,  1160.10000
    608.42,  2693.50000,  1166.00000
    608.89,  2752.00000,  1159.90000
    609.36,  2767.60000,  1162.70000
    609.83,  2752.00000,  1157.00000
    610.29,  2722.10000,  1144.10000
    610.76,  2699.70000,  1138.50000
    611.23,  2679.70000,  1142.40000
    611.69,  2706.80000,  1140.40000
    612.16,  2704.90000,  1143.10000
    612.63,  2697.10000,  1143.00000
    613.10,  2679.30000,  1139.40000
    613.56,  2671.20000,  1126.20000
    614.03,  2685.30000,  1116.90000
    614.50,  2698.30000,  1107.60000
    614.96,  2714.50000,  1108.00000
    615.43,  2715.60000,  1118.00000
    615.90,  2725.60000,  1125.90000
    616.36,  2725.80000,  1121.00000
    616.83,  2707.20000,  1110.20000
    617.30,  2703.60000,  1102.20000
    617.76,  2682.50000,  1095.00000
    618.23,  2661.80000,  1090.90000
    618.70,  2659.00000,  1091.00000
    619.16,  2670.80000,  1092.00000
    619.63,  2674.20000,  1081.60000
    620.10,  2677.20000,  1087.60000
    620.56,  2674.80000,  1079.50000
    621.03,  2699.60000,  1079.10000
    621.50,  2700.90000,  1088.20000
    621.96,  2711.10000,  1086.90000
    622.43,  2713.70000,  1085.20000
    622.90,  2713.60000,  1083.50000
    623.36,  2722.30000,  1071.90000
    623.83,  2729.90000,  1069.50000
    624.30,  2716.40000,  1070.70000
    624.76,  2714.80000,  1062.40000
    625.23,  2717.10000,  1063.10000
    625.70,  2731.50000,  1061.90000
    626.16,  2733.00000,  1056.60000
    626.63,  2706.00000,  1055.70000
    627.09,  2694.90000,  1060.70000
    627.56,  2703.10000,  1066.10000
    628.03,  2696.90000,  1073.50000
    628.49,  2707.90000,  1078.50000
    628.96,  2687.80000,  1074.60000
    629.43,  2682.10000,  1065.60000
    629.89,  2680.80000,  1058.70000
    630.36,  2692.90000,  1048.20000
    630.82,  2686.90000,  1047.00000
    631.29,  2690.40000,  1051.00000
    631.76,  2674.20000,  1054.50000
    632.22,  2662.40000,  1052.20000
    632.69,  2668.00000,  1051.00000
    633.15,  2694.00000,  1037.20000
    633.62,  2728.70000,  1022.90000
    634.09,  2742.50000,  1020.70000
    634.55,  2740.10000,  1022.60000
    635.02,  2711.40000,  1025.00000
    635.48,  2695.30000,  1035.90000
    635.95,  2685.70000,  1035.10000
    636.42,  2693.30000,  1029.60000
    636.88,  2682.90000,  1019.40000
    637.35,  2680.30000,  1020.30000
    637.81,  2699.30000,  1015.70000
    638.28,  2705.60000,  1012.10000
    638.74,  2722.30000,  1014.70000
    639.21,  2729.30000,  1013.10000
    639.68,  2705.40000,  1010.30000
    640.14,  2680.60000,  1010.10000
    640.61,  2697.20000,   997.30000
    641.07,  2664.30000,   997.40000
    641.54,  2680.40000,  1002.90000
    642.00,  2690.30000,  1003.30000
    642.47,  2697.10000,  1013.00000
    642.93,  2699.80000,  1016.60000
    643.40,  2711.30000,  1013.00000
    643.87,  2687.60000,  1020.60000
    644.33,  2691.20000,  1023.90000
    644.80,  2701.40000,  1013.50000
    645.26,  2686.90000,  1004.80000
    645.73,  2680.50000,   999.30000
    646.19,  2672.20000,  1002.80000
    646.66,  2678.00000,  1002.20000
    647.12,  2672.40000,  1002.00000
    647.59,  2691.10000,  1001.60000
    648.05,  2700.60000,   998.60000
    648.52,  2694.40000,  1002.10000
    648.98,  2683.50000,  1006.20000
    649.45,  2672.60000,  1001.80000
    649.91,  2652.90000,   989.90000
    650.38,  2658.00000,   993.90000
    650.84,  2705.00000,   992.50000
    651.31,  2695.80000,   999.70000
    651.77,  2693.20000,   999.20000
    652.24,  2666.20000,  1002.80000
    652.70,  2651.90000,  1000.10000
    653.17,  2647.90000,  1000.10000
    653.63,  2683.20000,   995.50000
    654.10,  2670.90000,   999.10000
    654.56,  2685.60000,   991.50000
    655.03,  2676.40000,   987.50000
    655.49,  2682.80000,   987.20000
    655.96,  2678.70000,   984.90000
    656.42,  2671.40000,   983.40000
    656.89,  2653.20000,   990.80000
    657.35,  2711.30000,   983.20000
    657.82,  2757.70000,   974.40000
    658.28,  2792.50000,   965.70000
    658.75,  2800.80000,   961.30000
    659.21,  2761.60000,   959.20000
    659.68,  2725.00000,   967.80000
    660.14,  2715.30000,   969.40000
    660.61,  2679.80000,   973.60000
    661.07,  2707.30000,   973.50000
    661.53,  2723.60000,   965.90000
    662.00,  2750.00000,   958.80000
    662.46,  2743.10000,   955.80000
    662.93,  2731.00000,   947.20000
    663.39,  2696.60000,   945.80000
    663.86,  2725.70000,   932.20000
    664.32,  2728.60000,   919.00000
    664.79,  2750.60000,   922.40000
    665.25,  2725.20000,   927.60000
    665.71,  2703.30000,   933.70000
    666.18,  2660.50000,   944.20000
    666.64,  2685.10000,   934.60000
    667.11,  2687.40000,   932.90000
    667.57,  2708.10000,   931.10000
    668.04,  2728.00000,   925.90000
    668.50,  2718.60000,   932.70000
    668.96,  2693.90000,   930.60000
    669.43,  2722.60000,   920.30000
    669.89,  2697.60000,   918.40000
    670.36,  2682.90000,   910.00000
    670.82,  2679.30000,   913.60000
    671.28,  2680.30000,   921.60000
    671.75,  2679.80000,   926.80000
    672.21,  2707.90000,   925.50000
    672.68,  2711.40000,   928.90000
    673.14,  2723.60000,   928.40000
    673.60,  2736.90000,   931.00000
    674.07,  2719.70000,   920.90000
    674.53,  2692.10000,   912.90000
    675.00,  2681.80000,   901.00000
    675.46,  2672.10000,   897.40000
    675.92,  2669.50000,   896.00000
    676.39,  2703.50000,   904.00000
    676.85,  2703.30000,   906.10000
    677.31,  2714.20000,   903.30000
    677.78,  2717.90000,   902.00000
    678.24,  2706.90000,   894.70000
    678.70,  2689.20000,   886.30000
    679.17,  2672.70000,   885.90000
    679.63,  2648.20000,   881.80000
    680.10,  2650.50000,   881.90000
    680.56,  2673.20000,   883.80000
    681.02,  2677.10000,   878.10000
    681.49,  2705.40000,   880.30000
    681.95,  2701.20000,   879.90000
    682.41,  2693.80000,   873.70000
    682.88,  2686.90000,   874.20000
    683.34,  2681.90000,   880.00000
    683.80,  2658.60000,   879.30000
    684.27,  2676.00000,   876.60000
    684.73,  2683.90000,   870.80000
    685.19,  2707.60000,   865.40000
    685.66,  2734.20000,   863.90000
    686.12,  2733.30000,   865.50000
    686.58,  2745.50000,   865.10000
    687.05,  2736.90000,   862.90000
    687.51,  2720.60000,   861.30000
    687.97,  2703.90000,   862.20000
    688.44,  2713.90000,   853.90000
    688.90,  2712.10000,   845.40000
    689.36,  2718.40000,   841.10000
    689.83,  2719.20000,   843.60000
    690.29,  2729.70000,   839.40000
    690.75,  2736.00000,   840.30000
    691.21,  2750.90000,   833.90000
    691.68,  2731.80000,   831.60000
    692.14,  2696.50000,   835.60000
    692.60,  2704.90000,   843.40000
    693.07,  2692.70000,   837.00000
    693.53,  2710.30000,   841.50000
    693.99,  2729.70000,   840.50000
    694.45,  2722.20000,   841.40000
    694.92,  2725.50000,   852.40000
    695.38,  2733.70000,   856.70000
    695.84,  2712.90000,   852.90000
    696.31,  2701.30000,   840.80000
    696.77,  2720.80000,   828.90000
    697.23,  2714.60000,   823.70000
    697.69,  2718.20000,   823.60000
    698.16,  2700.20000,   828.60000
    698.62,  2684.50000,   830.20000
    699.08,  2660.40000,   823.70000
    699.54,  2670.00000,   815.70000
    700.01,  2666.40000,   808.80000
    700.47,  2655.70000,   811.00000
    700.93,  2655.10000,   823.80000
    701.39,  2665.70000,   832.90000
    701.86,  2671.10000,   840.80000
    702.32,  2670.50000,   833.10000
    702.78,  2680.30000,   821.20000
    703.24,  2676.40000,   811.20000
    703.71,  2684.50000,   807.10000
    704.17,  2699.30000,   806.90000
    704.63,  2694.70000,   811.00000
    705.09,  2678.20000,   817.30000
    705.56,  2707.20000,   820.20000
    706.02,  2713.40000,   814.70000
    706.48,  2691.90000,   815.60000
    706.94,  2688.30000,   810.40000
    707.40,  2668.20000,   801.50000
    707.87,  2659.30000,   802.50000
    708.33,  2674.80000,   799.50000
    708.79,  2665.30000,   801.90000
    709.25,  2632.90000,   806.80000
    709.72,  2639.60000,   812.20000
    710.18,  2662.40000,   817.20000
    710.64,  2663.00000,   829.30000
    711.10,  2660.00000,   827.90000
    711.56,  2677.70000,   819.70000
    712.03,  2700.80000,   799.70000
    712.49,  2724.50000,   781.40000
    712.95,  2746.20000,   779.20000
    713.41,  2719.50000,   797.10000
    713.87,  2705.80000,   804.60000
    714.33,  2708.50000,   810.50000
    714.80,  2699.80000,   808.60000
    715.26,  2656.00000,   808.50000
    715.72,  2651.30000,   806.40000
    716.18,  2649.30000,   805.40000
    716.64,  2668.30000,   796.80000
    717.11,  2678.10000,   786.80000
    717.57,  2678.80000,   775.40000
    718.03,  2645.50000,   780.10000
    718.49,  2653.90000,   780.80000
    718.95,  2702.00000,   780.30000
    719.41,  2715.90000,   780.60000
    719.87,  2687.20000,   781.30000
    720.34,  2675.50000,   777.90000
    720.80,  2663.30000,   777.20000
    721.26,  2658.10000,   773.50000
    721.72,  2693.90000,   771.50000
    722.18,  2686.40000,   765.80000
    722.64,  2657.70000,   766.60000
    723.10,  2662.90000,   765.40000
    723.57,  2676.00000,   765.10000
    724.03,  2685.10000,   770.50000
    724.49,  2688.70000,   771.20000
    724.95,  2648.90000,   772.10000
    725.41,  2700.60000,   783.20000
    725.87,  2748.70000,   776.40000
    726.33,  2765.00000,   775.20000
    726.80,  2766.00000,   784.00000
    727.26,  2732.00000,   774.10000
    727.72,  2658.50000,   763.50000
    728.18,  2668.50000,   773.40000
    728.64,  2663.00000,   764.80000
    729.10,  2669.00000,   762.80000
    729.56,  2689.00000,   765.30000
    730.02,  2718.90000,   757.70000
    730.48,  2725.50000,   750.90000
    730.94,  2707.60000,   759.00000
    731.41,  2688.70000,   761.10000
    731.87,  2656.20000,   764.60000
    732.33,  2633.60000,   768.30000
    732.79,  2664.60000,   769.20000
    733.25,  2671.80000,   764.10000
    733.71,  2688.10000,   758.40000
    734.17,  2705.20000,   754.90000
    734.63,  2679.30000,   757.50000
    735.09,  2655.40000,   764.60000
    735.55,  2656.60000,   766.50000
    736.01,  2647.60000,   761.30000
    736.47,  2664.10000,   751.20000
    736.94,  2671.10000,   746.60000
    737.40,  2681.70000,   755.50000
    737.86,  2676.70000,   759.80000
    738.32,  2685.10000,   758.70000
    738.78,  2697.80000,   752.10000
    739.24,  2690.60000,   747.30000
    739.70,  2683.70000,   747.00000
    740.16,  2706.60000,   760.20000
    740.62,  2709.70000,   768.30000
    741.08,  2724.40000,   766.60000
    741.54,  2712.10000,   762.00000
    742.00,  2689.70000,   758.20000
    742.46,  2661.10000,   753.70000
    742.92,  2642.20000,   748.90000
    743.38,  2647.10000,   750.00000
    743.84,  2653.50000,   751.40000
    744.30,  2668.50000,   751.90000
    744.76,  2683.90000,   747.90000
    745.22,  2671.80000,   755.50000
    745.68,  2649.10000,   756.60000
    746.14,  2642.50000,   753.40000
    746.60,  2650.60000,   755.60000
    747.06,  2667.30000,   753.70000
    747.52,  2652.20000,   757.60000
    747.98,  2659.60000,   765.40000
    748.44,  2659.50000,   767.80000
    748.90,  2657.20000,   765.80000
    749.36,  2669.40000,   763.20000
    749.82,  2682.50000,   760.80000
    750.28,  2695.70000,   758.10000
    750.74,  2725.50000,   746.40000
    751.20,  2719.70000,   745.40000
    751.66,  2698.30000,   747.60000
    752.12,  2673.70000,   751.80000
    752.58,  2670.60000,   760.50000
    753.04,  2690.00000,   760.40000
    753.50,  2721.70000,   750.90000
    753.96,  2696.40000,   752.60000
    754.42,  2662.80000,   754.70000
    754.88,  2639.00000,   751.60000
    755.34,  2639.30000,   759.50000
    755.80,  2670.30000,   750.60000
    756.26,  2694.30000,   744.20000
    756.72,  2695.70000,   744.70000
    757.18,  2695.20000,   751.40000
    757.64,  2685.30000,   746.00000
    758.10,  2654.00000,   753.20000
    758.56,  2644.40000,   739.30000
    759.02,  2654.70000,   728.50000
    759.48,  2663.10000,   731.80000
    759.94,  2683.00000,   736.00000
    760.40,  2684.10000,   742.50000
    760.86,  2672.20000,   748.70000
    761.32,  2670.90000,   753.40000
    761.78,  2699.70000,   749.10000
    762.24,  2676.10000,   765.90000
    762.70,  2682.60000,   764.90000
    763.15,  2666.40000,   764.70000
    763.61,  2672.80000,   758.60000
    764.07,  2680.50000,   757.90000
    764.53,  2688.50000,   745.60000
    764.99,  2687.80000,   747.00000
    765.45,  2709.00000,   742.60000
    765.91,  2690.10000,   753.50000
    766.37,  2672.70000,   762.70000
    766.83,  2639.90000,   770.30000
    767.29,  2641.70000,   759.20000
    767.75,  2649.20000,   752.10000
    768.21,  2676.40000,   748.90000
    768.66,  2692.60000,   748.60000
    769.12,  2710.70000,   740.10000
    769.58,  2684.30000,   745.30000
    770.04,  2675.60000,   742.80000
    770.50,  2640.20000,   752.30000
    770.96,  2618.50000,   756.30000
    771.42,  2644.00000,   752.00000
    771.88,  2665.00000,   743.10000
    772.34,  2669.80000,   749.80000
    772.80,  2667.20000,   746.00000
    773.25,  2644.70000,   746.50000
    773.71,  2638.30000,   742.80000
    774.17,  2626.50000,   747.90000
    774.63,  2644.60000,   755.90000
    775.09,  2661.00000,   764.30000
    775.55,  2652.30000,   762.60000
    776.01,  2630.40000,   755.70000
    776.47,  2636.20000,   750.70000
    776.92,  2605.90000,   760.40000
    777.38,  2634.20000,   761.70000
    777.84,  2638.00000,   756.00000
    778.30,  2633.50000,   748.90000
    778.76,  2632.20000,   731.20000
    779.22,  2659.20000,   730.80000
    779.68,  2662.10000,   736.50000
    780.13,  2673.10000,   742.00000
    780.59,  2651.30000,   753.20000
    781.05,  2629.70000,   758.70000
    781.51,  2637.10000,   751.20000
    781.97,  2650.40000,   756.10000
    782.43,  2662.00000,   750.40000
    782.88,  2677.20000,   751.80000
    783.34,  2670.10000,   756.90000
    783.80,  2673.40000,   752.20000
    784.26,  2692.10000,   749.90000
    784.72,  2676.60000,   744.40000
    785.18,  2660.50000,   744.10000
    785.63,  2640.00000,   748.80000
    786.09,  2653.60000,   756.50000
    786.55,  2691.50000,   754.80000
    787.01,  2715.00000,   761.80000
    787.47,  2692.00000,   761.00000
    787.92,  2658.00000,   766.60000
    788.38,  2635.60000,   761.30000
    788.84,  2628.00000,   755.30000
    789.30,  2642.40000,   750.70000
    789.76,  2649.30000,   756.10000
    790.21,  2647.90000,   756.70000
    790.67,  2626.60000,   767.90000
    791.13,  2633.70000,   761.30000
    791.59,  2617.30000,   753.10000
    792.05,  2615.50000,   751.40000
    792.50,  2627.90000,   750.70000
    792.96,  2652.90000,   741.10000
    793.42,  2624.00000,   748.30000
    793.88,  2639.60000,   750.10000
    794.33,  2622.10000,   747.30000
    794.79,  2620.50000,   753.00000
    795.25,  2629.20000,   751.40000
    795.71,  2642.90000,   743.60000
    796.17,  2642.50000,   747.50000
    796.62,  2651.50000,   750.10000
    797.08,  2623.70000,   754.40000
    797.54,  2622.70000,   750.20000
    798.00,  2619.80000,   742.40000
    798.45,  2634.80000,   735.20000
    798.91,  2645.80000,   742.80000
    799.37,  2656.70000,   743.90000
    799.83,  2647.50000,   752.40000
    800.28,  2626.40000,   753.60000
    800.74,  2612.10000,   751.20000
    801.20,  2633.00000,   746.50000
    801.66,  2615.60000,   744.20000
    802.11,  2638.20000,   732.40000
    802.57,  2658.10000,   727.80000
    803.03,  2640.40000,   729.00000
    803.48,  2619.80000,   731.80000
    803.94,  2670.90000,   733.50000
    804.40,  2681.20000,   730.50000
    804.86,  2702.70000,   729.80000
    805.31,  2688.10000,   731.00000
    805.77,  2647.10000,   731.70000
    806.23,  2591.10000,   735.80000
    806.69,  2619.40000,   732.00000
    807.14,  2622.30000,   735.60000
    807.60,  2641.70000,   733.30000
    808.06,  2650.00000,   729.40000
    808.51,  2653.80000,   729.00000
    808.97,  2627.20000,   724.60000
    809.43,  2630.60000,   720.00000
    809.88,  2615.30000,   740.90000
    810.34,  2605.20000,   741.30000
    810.80,  2626.30000,   741.40000
    811.26,  2642.00000,   742.80000
    811.71,  2632.30000,   729.20000
    812.17,  2652.20000,   718.70000
    812.63,  2641.80000,   726.30000
    813.08,  2614.20000,   725.10000
    813.54,  2617.90000,   730.60000
    814.00,  2626.90000,   736.50000
    814.45,  2631.30000,   728.10000
    814.91,  2648.10000,   728.90000
    815.37,  2630.60000,   734.40000
    815.82,  2616.40000,   729.30000
    816.28,  2606.50000,   727.60000
    816.74,  2612.50000,   726.10000
    817.19,  2593.00000,   715.90000
    817.65,  2603.70000,   716.80000
    818.11,  2622.60000,   726.70000
    818.56,  2630.50000,   729.70000
    819.02,  2621.60000,   731.90000
    819.48,  2627.00000,   737.60000
    819.93,  2587.50000,   733.00000
    820.39,  2608.90000,   725.70000
    820.84,  2646.00000,   718.70000
    821.30,  2665.40000,   710.00000
    821.76,  2672.50000,   702.20000
    822.21,  2681.40000,   705.20000
    822.67,  2654.40000,   711.00000
    823.13,  2617.30000,   722.40000
    823.58,  2643.00000,   726.90000
    824.04,  2663.80000,   719.30000
    824.49,  2661.70000,   714.40000
    824.95,  2667.90000,   716.10000
    825.41,  2671.50000,   710.90000
    825.86,  2647.80000,   711.80000
    826.32,  2678.60000,   701.10000
    826.78,  2660.90000,   693.60000
    827.23,  2628.60000,   700.40000
    827.69,  2604.00000,   709.70000
    828.14,  2611.40000,   705.20000
    828.60,  2638.70000,   699.30000
    829.06,  2662.10000,   691.80000
    829.51,  2649.70000,   696.00000
    829.97,  2651.80000,   699.30000
    830.42,  2641.80000,   703.60000
    830.88,  2629.60000,   700.50000
    831.34,  2635.30000,   694.40000
    831.79,  2656.60000,   694.30000
    832.25,  2656.50000,   694.00000
    832.70,  2650.00000,   691.70000
    833.16,  2650.80000,   695.00000
    833.61,  2643.60000,   686.00000
    834.07,  2638.60000,   680.70000
    834.53,  2640.50000,   679.80000
    834.98,  2627.30000,   681.70000
    835.44,  2603.60000,   687.70000
    835.89,  2610.20000,   697.20000
    836.35,  2627.10000,   694.10000
    836.80,  2650.20000,   695.60000
    837.26,  2640.80000,   691.90000
    837.71,  2621.60000,   690.90000
    838.17,  2617.90000,   687.80000
    838.63,  2607.60000,   689.40000
    839.08,  2604.80000,   689.10000
    839.54,  2627.20000,   685.40000
    839.99,  2627.40000,   670.60000
    840.45,  2636.40000,   671.10000
    840.90,  2652.90000,   684.70000
    841.36,  2656.10000,   695.00000
    841.81,  2647.50000,   702.10000
    842.27,  2644.90000,   693.50000
    842.72,  2629.80000,   676.60000
    843.18,  2628.40000,   671.50000
    843.63,  2603.00000,   679.90000
    844.09,  2597.40000,   682.00000
    844.55,  2588.50000,   682.20000
    845.00,  2590.20000,   681.20000
    845.46,  2608.80000,   672.20000
    845.91,  2622.00000,   667.10000
    846.37,  2635.60000,   664.90000
    846.82,  2658.50000,   660.90000
    847.28,  2664.00000,   663.60000
    847.73,  2618.50000,   663.20000
    848.19,  2648.50000,   657.70000
    848.64,  2647.30000,   661.50000
    849.10,  2665.00000,   665.10000
    849.55,  2666.00000,   670.70000
    850.01,  2652.10000,   675.90000
    850.46,  2598.70000,   666.60000
    850.92,  2633.60000,   657.50000
    851.37,  2642.00000,   657.20000
    851.83,  2649.90000,   651.10000
    852.28,  2648.40000,   660.70000
    852.73,  2627.00000,   670.00000
    853.19,  2596.40000,   673.10000
    853.64,  2605.50000,   668.40000
    854.10,  2609.00000,   672.70000
    854.55,  2618.20000,   664.30000
    855.01,  2622.20000,   674.30000
    855.46,  2599.40000,   674.40000
    855.92,  2584.80000,   672.90000
    856.37,  2590.30000,   658.50000
    856.83,  2590.00000,   656.30000
    857.28,  2616.60000,   648.90000
    857.74,  2616.50000,   659.30000
    858.19,  2618.50000,   664.60000
    858.64,  2631.80000,   675.90000
    859.10,  2622.00000,   673.70000
    859.55,  2594.20000,   676.90000
    860.01,  2647.90000,   673.80000
    860.46,  2671.80000,   671.00000
    860.92,  2672.10000,   673.80000
    861.37,  2668.70000,   667.20000
    861.83,  2656.90000,   667.10000
    862.28,  2621.90000,   672.10000
    862.73,  2635.40000,   684.10000
    863.19,  2623.80000,   686.70000
    863.64,  2608.40000,   678.10000
    864.10,  2602.40000,   657.20000
    864.55,  2625.50000,   649.80000
    865.01,  2625.70000,   655.00000
    865.46,  2635.50000,   673.50000
    865.91,  2621.50000,   672.90000
    866.37,  2619.40000,   665.20000
    866.82,  2613.50000,   655.60000
    867.28,  2611.40000,   653.30000
    867.73,  2595.60000,   666.00000
    868.18,  2613.30000,   684.30000
    868.64,  2617.50000,   678.10000
    869.09,  2644.10000,   667.10000
    869.55,  2662.30000,   652.40000
    870.00,  2652.00000,   649.60000
    870.45,  2630.60000,   657.90000
    870.91,  2601.60000,   669.70000
    871.36,  2581.10000,   666.00000
    871.81,  2609.80000,   652.00000
    872.27,  2635.70000,   655.00000
    872.72,  2639.40000,   662.90000
    873.18,  2639.20000,   670.00000
    873.63,  2610.60000,   676.40000
    874.08,  2599.60000,   673.30000
    874.54,  2615.00000,   671.10000
    874.99,  2609.60000,   673.10000
    875.44,  2593.80000,   666.60000
    875.90,  2580.80000,   662.30000
    876.35,  2576.20000,   663.40000
    876.81,  2614.70000,   660.20000
    877.26,  2649.70000,   663.70000
    877.71,  2639.50000,   662.30000
    878.17,  2608.30000,   662.70000
    878.62,  2622.50000,   665.50000
    879.07,  2638.30000,   671.20000
    879.53,  2661.30000,   672.20000
    879.98,  2655.30000,   679.50000
    880.43,  2638.10000,   680.00000
    880.89,  2616.20000,   678.20000
    881.34,  2622.70000,   674.50000
    881.79,  2631.60000,   675.20000
    882.25,  2621.50000,   671.40000
    882.70,  2601.40000,   679.30000
    883.15,  2590.10000,   679.50000
    883.61,  2598.40000,   680.90000
    884.06,  2587.10000,   676.90000
    884.51,  2602.60000,   682.10000
    884.97,  2588.10000,   683.80000
    885.42,  2607.30000,   683.40000
    885.87,  2608.10000,   681.80000
    886.32,  2620.10000,   688.70000
    886.78,  2590.20000,   689.30000
    887.23,  2596.70000,   695.70000
    887.68,  2585.30000,   699.00000
    888.14,  2600.10000,   694.00000
    888.59,  2591.60000,   686.00000
    889.04,  2578.80000,   685.50000
    889.50,  2551.10000,   681.80000
    889.95,  2578.50000,   674.30000
    890.40,  2608.90000,   676.70000
    890.85,  2626.20000,   684.00000
    891.31,  2621.50000,   681.60000
    891.76,  2617.20000,   685.80000
    892.21,  2597.00000,   680.20000
    892.67,  2606.70000,   671.60000
    893.12,  2601.30000,   675.70000
    893.57,  2603.60000,   679.80000
    894.02,  2613.00000,   684.20000
    894.48,  2633.60000,   688.10000
    894.93,  2630.90000,   686.00000
    895.38,  2635.40000,   681.00000
    895.83,  2612.60000,   684.60000
    896.29,  2608.20000,   683.60000
    896.74,  2602.20000,   695.30000
    897.19,  2621.90000,   693.10000
    897.64,  2629.50000,   694.90000
    898.10,  2632.40000,   695.80000
    898.55,  2612.50000,   694.60000
    899.00,  2606.70000,   688.40000
    899.45,  2574.40000,   691.90000
    899.91,  2565.00000,   690.80000
    900.36,  2546.90000,   698.60000
    900.81,  2581.20000,   697.60000
    901.26,  2600.90000,   691.30000
    901.72,  2624.80000,   688.70000
    902.17,  2619.60000,   691.50000
    902.62,  2622.90000,   698.80000
    903.07,  2582.00000,   708.50000
    903.52,  2594.40000,   706.40000
    903.98,  2596.40000,   699.00000
    904.43,  2609.70000,   695.20000
    904.88,  2603.30000,   701.30000
    905.33,  2613.40000,   702.10000
    905.79,  2590.60000,   705.30000
    906.24,  2596.40000,   706.40000
    906.69,  2604.40000,   710.30000
    907.14,  2606.60000,   707.60000
    907.59,  2577.60000,   713.40000
    908.05,  2566.80000,   708.90000
    908.50,  2556.60000,   710.40000
    908.95,  2570.20000,   710.10000
    909.40,  2582.60000,   714.70000
    909.85,  2574.20000,   716.00000
    910.31,  2571.50000,   720.80000
    910.76,  2559.60000,   722.60000
    911.21,  2546.60000,   734.90000
    911.66,  2549.00000,   740.10000
    912.11,  2552.80000,   740.80000
    912.56,  2577.70000,   740.70000
    913.02,  2604.30000,   739.90000
    913.47,  2606.30000,   737.00000
    913.92,  2597.10000,   736.90000
    914.37,  2585.40000,   737.30000
    914.82,  2583.60000,   748.50000
    915.27,  2599.90000,   756.10000
    915.73,  2618.90000,   764.00000
    916.18,  2607.50000,   772.90000
    916.63,  2591.50000,   783.00000
    917.08,  2553.80000,   792.40000
    917.53,  2585.40000,   806.80000
    917.98,  2474.40000,   815.50000
    918.44,  2823.80000,   816.70000
    918.89,  3006.60000,   826.30000
    919.34,  3061.60000,   844.00000
    919.79,  2967.90000,   859.40000
    920.24,  2801.80000,   876.50000
    920.69,  2474.90000,   904.70000
    921.14,  2610.70000,   918.00000
    921.59,  2604.20000,   937.60000
    922.05,  2598.30000,   966.60000
    922.50,  2592.70000,   995.40000
    922.95,  2606.70000,  1034.80000
    923.40,  2618.70000,  1087.90000
    923.85,  2633.50000,  1130.90000
    924.30,  2642.00000,  1197.30000
    924.75,  2625.40000,  1292.80000
    925.20,  2600.40000,  1413.40000
    925.66,  2585.80000,  1553.30000
    926.11,  2580.80000,  1699.60000
    926.56,  2590.60000,  1856.30000
    927.01,  2610.60000,  2041.60000
    927.46,  2604.20000,  2260.70000
    927.91,  2574.00000,  2522.50000
    928.36,  2544.50000,  2804.20000
    928.81,  2539.70000,  3098.90000
    929.26,  2582.90000,  3376.50000
    929.71,  2633.40000,  3649.70000
    930.16,  2666.20000,  3916.30000
    930.62,  2637.80000,  4164.60000
    931.07,  2606.80000,  4399.50000
    931.52,  2577.30000,  4620.40000
    931.97,  2589.80000,  4803.90000
    932.42,  2595.60000,  4981.20000
    932.87,  2603.00000,  5174.50000
    933.32,  2586.20000,  5390.90000
    933.77,  2607.30000,  5643.30000
    934.22,  2603.00000,  5850.70000
    934.67,  2615.40000,  6015.10000
    935.12,  2612.10000,  6156.80000
    935.57,  2586.10000,  6271.10000
    936.02,  2558.30000,  6328.70000
    936.47,  2584.90000,  6389.00000
    936.93,  2563.40000,  6413.00000
    937.38,  2564.60000,  6451.80000
    937.83,  2580.40000,  6539.20000
    938.28,  2572.70000,  6658.80000
    938.73,  2568.20000,  6707.80000
    939.18,  2592.30000,  6766.80000
    939.63,  2597.20000,  6812.50000
    940.08,  2608.00000,  6866.80000
    940.53,  2622.80000,  6934.10000
    940.98,  2616.10000,  7003.00000
    941.43,  2591.20000,  7052.70000
    941.88,  2577.60000,  7146.70000
    942.33,  2592.40000,  7243.00000
    942.78,  2595.60000,  7372.00000
    943.23,  2609.30000,  7526.80000
    943.68,  2612.50000,  7661.60000
    944.13,  2616.00000,  7756.10000
    944.58,  2623.60000,  7813.50000
    945.03,  2612.80000,  7785.30000
    945.48,  2580.60000,  7695.00000
    945.93,  2576.60000,  7656.70000
    946.38,  2583.10000,  7737.20000
    946.83,  2609.00000,  7921.00000
    947.28,  2633.50000,  8122.90000
    947.73,  2628.40000,  8249.00000
    948.18,  2602.30000,  8293.00000
    948.63,  2588.80000,  8267.70000
    949.08,  2583.80000,  8223.70000
    949.53,  2568.60000,  8204.50000
    949.98,  2554.70000,  8154.20000
    950.43,  2564.10000,  8054.80000
    950.88,  2573.20000,  7976.50000
    951.33,  2586.30000,  7883.60000
    951.78,  2613.90000,  7743.80000
    952.23,  2615.30000,  7654.30000
    952.68,  2601.10000,  7613.00000
    953.13,  2605.30000,  7574.50000
    953.58,  2608.70000,  7471.60000
    954.03,  2596.50000,  7346.90000
    954.48,  2586.30000,  7181.90000
    954.93,  2575.70000,  7068.40000
    955.38,  2567.60000,  7000.20000
    955.83,  2569.30000,  6948.10000
    956.28,  2571.00000,  6868.00000
    956.73,  2582.50000,  6794.80000
    957.18,  2588.50000,  6701.70000
    957.62,  2583.30000,  6624.60000
    958.07,  2591.20000,  6550.50000
    958.52,  2577.20000,  6442.60000
    958.97,  2565.60000,  6316.10000
    959.42,  2566.80000,  6158.30000
    959.87,  2560.30000,  5945.30000
    960.32,  2569.40000,  5744.10000
    960.77,  2597.80000,  5549.40000
    961.22,  2641.60000,  5360.90000
    961.67,  2659.00000,  5178.70000
    962.12,  2633.70000,  5073.00000
    962.57,  2598.20000,  4969.40000
    963.02,  2596.00000,  4874.40000
    963.47,  2576.90000,  4749.20000
    963.92,  2602.90000,  4609.70000
    964.36,  2607.10000,  4473.90000
    964.81,  2601.30000,  4385.30000
    965.26,  2598.00000,  4309.50000
    965.71,  2600.20000,  4235.90000
    966.16,  2590.50000,  4155.70000
    966.61,  2578.20000,  4076.50000
    967.06,  2569.70000,  3994.30000
    967.51,  2585.70000,  3892.60000
    967.96,  2599.20000,  3786.20000
    968.41,  2608.10000,  3659.70000
    968.85,  2609.10000,  3525.90000
    969.30,  2592.90000,  3422.00000
    969.75,  2604.00000,  3305.90000
    970.20,  2606.60000,  3162.70000
    970.65,  2618.10000,  3018.20000
    971.10,  2611.70000,  2877.00000
    971.55,  2602.40000,  2760.30000
    972.00,  2579.90000,  2685.30000
    972.44,  2565.60000,  2609.90000
    972.89,  2581.20000,  2528.90000
    973.34,  2598.20000,  2443.20000
    973.79,  2604.10000,  2355.80000
    974.24,  2619.40000,  2292.30000
    974.69,  2600.60000,  2246.80000
    975.14,  2567.50000,  2207.70000
    975.59,  2567.50000,  2175.50000
    976.03,  2548.50000,  2136.50000
    976.48,  2541.00000,  2104.40000
    976.93,  2546.00000,  2084.60000
    977.38,  2549.80000,  2076.00000
    977.83,  2546.50000,  2082.60000
    978.28,  2562.70000,  2089.20000
    978.72,  2576.10000,  2092.90000
    979.17,  2593.30000,  2089.60000
    979.62,  2606.90000,  2074.40000
    980.07,  2615.00000,  2052.30000
    980.52,  2601.70000,  2044.90000
    980.97,  2578.50000,  2034.70000
    981.41,  2532.70000,  2037.10000
    981.86,  2509.40000,  2037.10000
    982.31,  2527.60000,  2018.60000
    982.76,  2546.70000,  1970.30000
    983.21,  2587.80000,  1895.30000
    983.66,  2594.00000,  1821.10000
    984.10,  2566.70000,  1776.20000
    984.55,  2546.80000,  1747.90000
    985.00,  2539.20000,  1725.10000
    985.45,  2515.90000,  1690.00000
    985.90,  2531.50000,  1636.40000
    986.34,  2543.60000,  1587.50000
    986.79,  2536.10000,  1541.80000
    987.24,  2537.50000,  1495.20000
    987.69,  2528.40000,  1440.70000
    988.14,  2527.30000,  1395.00000
    988.58,  2540.80000,  1358.20000
    989.03,  2555.20000,  1317.20000
    989.48,  2555.00000,  1285.10000
    989.93,  2556.30000,  1249.60000
    990.38,  2538.90000,  1213.10000
    990.82,  2544.50000,  1196.90000
    991.27,  2566.70000,  1171.80000
    991.72,  2587.50000,  1145.70000
    992.17,  2568.70000,  1127.20000
    992.61,  2579.20000,  1099.70000
    993.06,  2548.90000,  1091.20000
    993.51,  2570.70000,  1084.00000
    993.96,  2578.90000,  1065.80000
    994.41,  2564.20000,  1059.10000
    994.85,  2541.70000,  1034.80000
    995.30,  2561.20000,  1005.90000
    995.75,  2561.70000,   981.90000
    996.20,  2609.80000,   952.00000
    996.64,  2592.50000,   944.70000
    997.09,  2558.00000,   935.40000
    997.54,  2542.60000,   920.20000
    997.99,  2525.10000,   914.60000
    998.43,  2524.20000,   910.30000
    998.88,  2523.40000,   914.60000
    999.33,  2523.10000,   925.60000
    999.77,  2550.00000,   915.50000
   1000.22,  2568.00000,   906.90000
   1000.67,  2577.30000,   899.30000
   1001.12,  2583.00000,   896.80000
   1001.56,  2549.70000,   890.00000
   1002.01,  2536.70000,   881.40000
   1002.46,  2556.40000,   870.80000
   1002.91,  2540.70000,   868.30000
   1003.35,  2553.30000,   869.30000
   1003.80,  2545.00000,   872.90000
   1004.25,  2543.70000,   869.80000
   1004.69,  2546.00000,   865.40000
   1005.14,  2534.80000,   872.30000
   1005.59,  2534.00000,   879.60000
   1006.04,  2571.50000,   870.50000
   1006.48,  2584.00000,   867.10000
   1006.93,  2611.70000,   858.00000
   1007.38,  2601.10000,   846.00000
   1007.82,  2554.50000,   851.30000
   1008.27,  2532.60000,   854.40000
   1008.72,  2527.50000,   850.80000
   1009.16,  2524.10000,   854.90000
   1009.61,  2532.40000,   857.10000
   1010.06,  2534.10000,   859.50000
   1010.50,  2566.90000,   858.70000
   1010.95,  2595.40000,   848.90000
   1011.40,  2600.90000,   847.40000
   1011.85,  2578.30000,   848.10000
   1012.29,  2563.90000,   848.30000
   1012.74,  2531.70000,   856.50000
   1013.19,  2529.80000,   857.50000
   1013.63,  2565.10000,   860.10000
   1014.08,  2586.00000,   858.10000
   1014.53,  2584.10000,   866.60000
   1014.97,  2573.60000,   865.30000
   1015.42,  2549.20000,   867.50000
   1015.86,  2518.70000,   863.70000
   1016.31,  2538.10000,   859.20000
   1016.76,  2563.60000,   847.10000
   1017.20,  2554.90000,   853.30000
   1017.65,  2530.60000,   851.30000
   1018.10,  2532.30000,   853.40000
   1018.54,  2511.20000,   859.60000
   1018.99,  2539.20000,   851.10000
   1019.44,  2554.50000,   845.50000
   1019.88,  2545.50000,   854.90000
   1020.33,  2536.40000,   855.20000
   1020.78,  2542.00000,   857.40000
   1021.22,  2541.20000,   865.80000
   1021.67,  2549.50000,   856.60000
   1022.11,  2544.30000,   849.00000
   1022.56,  2547.10000,   848.80000
   1023.01,  2541.50000,   843.00000
   1023.45,  2521.90000,   847.10000
   1023.90,  2520.60000,   855.00000
   1024.34,  2500.50000,   852.90000
   1024.79,  2505.90000,   854.20000
   1025.24,  2530.80000,   859.00000
   1025.68,  2533.10000,   858.00000
   1026.13,  2531.40000,   865.80000
   1026.58,  2535.30000,   868.20000
   1027.02,  2546.40000,   860.20000
   1027.47,  2556.50000,   855.20000
   1027.91,  2554.40000,   861.00000
   1028.36,  2534.30000,   853.50000
   1028.80,  2522.20000,   861.50000
   1029.25,  2497.10000,   867.10000
   1029.70,  2503.20000,   865.50000
   1030.14,  2502.80000,   868.10000
   1030.59,  2497.50000,   878.10000
   1031.03,  2501.60000,   872.60000
   1031.48,  2514.00000,   873.00000
   1031.93,  2543.10000,   860.90000
   1032.37,  2575.60000,   852.90000
   1032.82,  2580.40000,   850.30000
   1033.26,  2583.80000,   856.30000
   1033.71,  2556.10000,   868.60000
   1034.15,  2538.60000,   873.50000
   1034.60,  2538.20000,   875.80000
   1035.05,  2555.20000,   876.70000
   1035.49,  2545.80000,   866.60000
   1035.94,  2549.40000,   863.10000
   1036.38,  2517.30000,   866.90000
   1036.83,  2494.60000,   867.60000
   1037.27,  2478.50000,   868.30000
   1037.72,  2482.30000,   865.70000
   1038.16,  2582.90000,   865.90000
   1038.61,  2655.30000,   877.80000
   1039.05,  2667.70000,   885.20000
   1039.50,  2657.00000,   890.60000
   1039.95,  2598.30000,   886.80000
   1040.39,  2527.80000,   881.20000
   1040.84,  2538.70000,   890.10000
   1041.28,  2534.90000,   895.20000
   1041.73,  2529.10000,   895.60000
   1042.17,  2543.70000,   885.10000
   1042.62,  2545.40000,   876.30000
   1043.06,  2553.90000,   872.50000
   1043.51,  2530.90000,   882.40000
   1043.95,  2531.60000,   894.10000
   1044.40,  2525.60000,   913.30000
   1044.84,  2515.30000,   918.10000
   1045.29,  2513.00000,   913.90000
   1045.73,  2524.70000,   906.00000
   1046.18,  2512.50000,   896.60000
   1046.62,  2503.50000,   900.00000
   1047.07,  2497.00000,   907.00000
   1047.51,  2477.80000,   912.10000
   1047.96,  2510.30000,   913.40000
   1048.40,  2557.40000,   911.70000
   1048.85,  2574.70000,   903.10000
   1049.29,  2558.00000,   905.90000
   1049.74,  2515.10000,   900.80000
   1050.18,  2477.90000,   902.80000
   1050.63,  2476.10000,   920.70000
   1051.07,  2487.70000,   933.10000
   1051.52,  2506.60000,   937.70000
   1051.96,  2499.60000,   941.50000
   1052.41,  2484.80000,   931.40000
   1052.85,  2487.80000,   929.10000
   1053.30,  2478.20000,   934.00000
   1053.74,  2476.60000,   942.10000
   1054.18,  2483.90000,   945.50000
   1054.63,  2467.50000,   946.20000
   1055.07,  2461.70000,   944.90000
   1055.52,  2460.70000,   943.10000
   1055.96,  2455.10000,   936.10000
   1056.41,  2447.50000,   941.00000
   1056.85,  2443.10000,   947.30000
   1057.30,  2439.10000,   956.50000
   1057.74,  2437.10000,   968.20000
   1058.18,  2438.80000,   969.40000
   1058.63,  2414.80000,   964.90000
   1059.07,  2413.80000,   965.70000
   1059.52,  2431.40000,   963.70000
   1059.96,  2438.90000,   963.00000
   1060.41,  2439.90000,   970.00000
   1060.85,  2450.50000,   971.60000
   1061.30,  2434.50000,   971.20000
   1061.74,  2425.30000,   981.60000
   1062.18,  2427.20000,   974.50000
   1062.63,  2407.20000,   978.00000
   1063.07,  2407.00000,   981.50000
   1063.52,  2412.40000,   985.80000
   1063.96,  2431.90000,   984.50000
   1064.40,  2430.40000,   989.60000
   1064.85,  2424.50000,   982.80000
   1065.29,  2396.40000,   985.20000
   1065.74,  2381.40000,   982.40000
   1066.18,  2348.80000,   986.40000
