2D Measure spectrum data V5.74

<< MEASURE 1 >>
Data count = 2048
Exposure time = 30000 msec
Average = 10
Inspected time = 2020/10/23 19:31

Wave-dcm-1,Dark spec.  ,Spectrum
    108.17,  2231.00000,   538.50000
    108.66,  2234.70000,   530.70000
    109.15,  2244.80000,   521.30000
    109.65,  2271.30000,   511.00000
    110.14,  2282.40000,   503.70000
    110.63,  2288.50000,   504.20000
    111.13,  2302.20000,   502.30000
    111.62,  2282.10000,   504.00000
    112.11,  2291.70000,   499.40000
    112.60,  2318.00000,   492.60000
    113.10,  2314.80000,   481.80000
    113.59,  2337.70000,   480.20000
    114.08,  2359.80000,   478.40000
    114.58,  2345.70000,   477.50000
    115.07,  2387.40000,   475.30000
    115.56,  2399.20000,   480.80000
    116.06,  2389.50000,   484.10000
    116.55,  2395.90000,   488.10000
    117.04,  2385.10000,   492.60000
    117.53,  2362.70000,   485.80000
    118.03,  2394.40000,   487.60000
    118.52,  2397.20000,   493.00000
    119.01,  2393.20000,   489.70000
    119.51,  2484.40000,   496.00000
    120.00,  2571.40000,   508.80000
    120.49,  2604.70000,   522.40000
    120.98,  2601.70000,   542.40000
    121.48,  2517.40000,   550.30000
    121.97,  2413.20000,   567.00000
    122.46,  2399.60000,   580.60000
    122.95,  2423.30000,   593.80000
    123.45,  2462.60000,   604.40000
    123.94,  2473.40000,   606.90000
    124.43,  2495.30000,   611.80000
    124.92,  2527.00000,   636.90000
    125.42,  2525.00000,   648.70000
    125.91,  2538.10000,   667.40000
    126.40,  2531.00000,   675.70000
    126.89,  2504.00000,   685.30000
    127.39,  2498.10000,   688.30000
    127.88,  2492.90000,   709.20000
    128.37,  2493.20000,   714.90000
    128.86,  2511.80000,   739.40000
    129.35,  2513.60000,   743.50000
    129.85,  2524.90000,   760.00000
    130.34,  2519.50000,   766.30000
    130.83,  2516.20000,   785.00000
    131.32,  2520.90000,   786.10000
    131.81,  2519.10000,   802.00000
    132.31,  2523.50000,   793.00000
    132.80,  2524.60000,   802.70000
    133.29,  2507.10000,   815.60000
    133.78,  2514.00000,   820.10000
    134.27,  2528.10000,   830.30000
    134.77,  2539.80000,   841.60000
    135.26,  2567.80000,   844.90000
    135.75,  2563.40000,   860.30000
    136.24,  2575.30000,   885.20000
    136.73,  2562.90000,   878.90000
    137.23,  2573.70000,   890.70000
    137.72,  2565.50000,   888.00000
    138.21,  2555.80000,   897.10000
    138.70,  2540.50000,   912.00000
    139.19,  2577.20000,   925.70000
    139.68,  2570.60000,   914.30000
    140.18,  2580.20000,   910.80000
    140.67,  2589.10000,   901.00000
    141.16,  2591.10000,   905.80000
    141.65,  2575.20000,   931.50000
    142.14,  2583.10000,   937.00000
    142.63,  2603.80000,   938.50000
    143.13,  2606.20000,   949.50000
    143.62,  2638.00000,   962.20000
    144.11,  2637.70000,   969.70000
    144.60,  2592.00000,   986.00000
    145.09,  2583.30000,   981.50000
    145.58,  2640.60000,   982.60000
    146.07,  2650.00000,  1005.20000
    146.56,  2656.00000,  1010.30000
    147.06,  2644.70000,  1019.10000
    147.55,  2617.50000,  1011.50000
    148.04,  2580.70000,  1014.00000
    148.53,  2622.70000,  1023.90000
    149.02,  2591.40000,  1050.60000
    149.51,  2661.80000,  1063.80000
    150.00,  2715.10000,  1083.50000
    150.49,  2741.50000,  1095.70000
    150.99,  2736.70000,  1126.60000
    151.48,  2720.00000,  1146.30000
    151.97,  2635.90000,  1162.80000
    152.46,  2642.60000,  1175.20000
    152.95,  2623.70000,  1184.00000
    153.44,  2624.90000,  1191.70000
    153.93,  2642.00000,  1197.20000
    154.42,  2655.50000,  1201.90000
    154.91,  2637.00000,  1196.30000
    155.40,  2623.50000,  1199.00000
    155.89,  2612.10000,  1200.60000
    156.39,  2630.30000,  1199.60000
    156.88,  2608.90000,  1195.60000
    157.37,  2614.00000,  1205.40000
    157.86,  2617.20000,  1228.80000
    158.35,  2623.50000,  1258.70000
    158.84,  2643.60000,  1275.40000
    159.33,  2694.60000,  1282.00000
    159.82,  2705.20000,  1282.80000
    160.31,  2723.90000,  1276.30000
    160.80,  2750.90000,  1287.20000
    161.29,  2703.60000,  1295.30000
    161.78,  2665.90000,  1305.90000
    162.27,  2637.80000,  1313.90000
    162.76,  2632.00000,  1324.40000
    163.25,  2647.00000,  1322.60000
    163.74,  2676.90000,  1329.10000
    164.23,  2681.10000,  1342.30000
    164.72,  2701.00000,  1360.10000
    165.21,  2677.20000,  1378.80000
    165.70,  2664.60000,  1387.50000
    166.20,  2706.60000,  1387.20000
    166.69,  2729.40000,  1388.70000
    167.18,  2740.00000,  1395.50000
    167.67,  2733.60000,  1399.00000
    168.16,  2698.70000,  1400.20000
    168.65,  2646.40000,  1400.00000
    169.14,  2682.10000,  1379.20000
    169.63,  2685.70000,  1365.60000
    170.12,  2679.10000,  1351.90000
    170.61,  2671.90000,  1333.50000
    171.10,  2724.40000,  1323.20000
    171.59,  2719.80000,  1321.40000
    172.08,  2745.40000,  1300.80000
    172.57,  2740.90000,  1312.00000
    173.06,  2738.80000,  1314.00000
    173.55,  2721.50000,  1323.10000
    174.04,  2701.50000,  1334.70000
    174.53,  2685.70000,  1345.60000
    175.02,  2684.80000,  1334.30000
    175.50,  2707.30000,  1330.10000
    175.99,  2743.80000,  1319.00000
    176.48,  2774.40000,  1322.10000
    176.97,  2749.20000,  1322.30000
    177.46,  2743.40000,  1328.50000
    177.95,  2721.70000,  1306.00000
    178.44,  2708.90000,  1278.80000
    178.93,  2686.00000,  1280.80000
    179.42,  2706.30000,  1280.90000
    179.91,  2711.20000,  1302.20000
    180.40,  2721.20000,  1315.70000
    180.89,  2734.20000,  1328.30000
    181.38,  2725.00000,  1330.60000
    181.87,  2713.00000,  1353.60000
    182.36,  2706.20000,  1354.20000
    182.85,  2669.80000,  1355.20000
    183.34,  2693.50000,  1340.60000
    183.83,  2709.80000,  1332.10000
    184.32,  2708.10000,  1322.00000
    184.81,  2753.00000,  1317.40000
    185.29,  2746.70000,  1315.00000
    185.78,  2716.40000,  1305.50000
    186.27,  2726.30000,  1302.60000
    186.76,  2713.30000,  1294.60000
    187.25,  2676.40000,  1305.50000
    187.74,  2746.80000,  1307.10000
    188.23,  2769.20000,  1316.80000
    188.72,  2796.10000,  1322.00000
    189.21,  2786.80000,  1321.50000
    189.70,  2756.70000,  1319.80000
    190.19,  2722.40000,  1325.20000
    190.67,  2718.80000,  1313.90000
    191.16,  2719.30000,  1313.10000
    191.65,  2724.50000,  1317.10000
    192.14,  2710.00000,  1302.80000
    192.63,  2729.10000,  1312.50000
    193.12,  2741.00000,  1315.30000
    193.61,  2721.90000,  1318.60000
    194.10,  2739.60000,  1324.90000
    194.59,  2733.10000,  1333.50000
    195.07,  2737.90000,  1315.50000
    195.56,  2754.80000,  1315.00000
    196.05,  2736.20000,  1313.10000
    196.54,  2718.80000,  1318.20000
    197.03,  2729.80000,  1330.90000
    197.52,  2765.60000,  1331.70000
    198.01,  2777.00000,  1325.90000
    198.49,  2786.90000,  1312.70000
    198.98,  2780.00000,  1305.00000
    199.47,  2745.10000,  1294.90000
    199.96,  2726.40000,  1296.20000
    200.45,  2743.70000,  1274.70000
    200.94,  2721.40000,  1264.50000
    201.43,  2733.50000,  1253.20000
    201.91,  2723.50000,  1254.00000
    202.40,  2708.50000,  1262.60000
    202.89,  2703.10000,  1275.40000
    203.38,  2719.80000,  1283.20000
    203.87,  2726.20000,  1279.50000
    204.36,  2717.90000,  1287.20000
    204.84,  2710.70000,  1296.40000
    205.33,  2720.60000,  1309.00000
    205.82,  2739.30000,  1308.90000
    206.31,  2737.60000,  1309.10000
    206.80,  2746.00000,  1293.50000
    207.28,  2751.00000,  1290.80000
    207.77,  2757.80000,  1290.90000
    208.26,  2764.80000,  1301.50000
    208.75,  2774.50000,  1297.90000
    209.24,  2752.10000,  1300.00000
    209.72,  2761.40000,  1310.00000
    210.21,  2777.30000,  1310.30000
    210.70,  2758.00000,  1320.00000
    211.19,  2773.40000,  1332.40000
    211.68,  2784.10000,  1339.30000
    212.16,  2792.00000,  1335.50000
    212.65,  2795.40000,  1348.40000
    213.14,  2783.70000,  1349.90000
    213.63,  2764.00000,  1370.40000
    214.12,  2744.10000,  1377.60000
    214.60,  2754.70000,  1386.80000
    215.09,  2776.70000,  1380.80000
    215.58,  2775.60000,  1378.20000
    216.07,  2769.30000,  1388.40000
    216.55,  2766.50000,  1405.20000
    217.04,  2702.60000,  1415.00000
    217.53,  2698.90000,  1428.00000
    218.02,  2702.10000,  1441.00000
    218.50,  2717.70000,  1444.40000
    218.99,  2736.30000,  1466.70000
    219.48,  2763.70000,  1476.50000
    219.97,  2727.70000,  1493.50000
    220.45,  2730.00000,  1509.30000
    220.94,  2723.80000,  1524.50000
    221.43,  2738.90000,  1533.40000
    221.92,  2757.80000,  1545.20000
    222.40,  2758.40000,  1542.40000
    222.89,  2748.70000,  1548.40000
    223.38,  2767.10000,  1550.90000
    223.86,  2788.00000,  1550.70000
    224.35,  2810.40000,  1555.30000
    224.84,  2813.90000,  1546.20000
    225.33,  2796.40000,  1544.80000
    225.81,  2767.70000,  1547.00000
    226.30,  2744.80000,  1553.70000
    226.79,  2741.50000,  1550.60000
    227.27,  2728.70000,  1551.40000
    227.76,  2733.00000,  1529.90000
    228.25,  2768.30000,  1514.00000
    228.74,  2782.20000,  1503.40000
    229.22,  2796.40000,  1489.60000
    229.71,  2789.70000,  1473.30000
    230.20,  2770.70000,  1446.00000
    230.68,  2762.60000,  1417.40000
    231.17,  2756.20000,  1385.30000
    231.66,  2725.30000,  1380.80000
    232.14,  2720.20000,  1375.10000
    232.63,  2710.80000,  1368.80000
    233.12,  2744.40000,  1338.60000
    233.60,  2771.90000,  1321.20000
    234.09,  2746.70000,  1307.90000
    234.58,  2732.10000,  1295.00000
    235.06,  2728.30000,  1286.70000
    235.55,  2728.20000,  1259.20000
    236.04,  2726.10000,  1238.30000
    236.52,  2741.70000,  1231.10000
    237.01,  2715.10000,  1236.80000
    237.50,  2757.00000,  1209.20000
    237.98,  2748.70000,  1209.00000
    238.47,  2813.10000,  1192.40000
    238.96,  2816.70000,  1200.70000
    239.44,  2810.00000,  1201.60000
    239.93,  2805.20000,  1201.00000
    240.41,  2772.50000,  1177.80000
    240.90,  2708.70000,  1165.40000
    241.39,  2733.60000,  1157.80000
    241.87,  2770.30000,  1159.00000
    242.36,  2783.10000,  1165.90000
    242.85,  2817.70000,  1171.60000
    243.33,  2804.80000,  1167.60000
    243.82,  2782.00000,  1148.00000
    244.30,  2751.50000,  1146.60000
    244.79,  2763.00000,  1137.80000
    245.28,  2750.90000,  1139.50000
    245.76,  2751.60000,  1149.50000
    246.25,  2738.70000,  1157.20000
    246.74,  2762.40000,  1153.30000
    247.22,  2788.60000,  1145.50000
    247.71,  2786.90000,  1143.40000
    248.19,  2778.00000,  1123.20000
    248.68,  2777.40000,  1123.10000
    249.16,  2736.20000,  1125.70000
    249.65,  2769.80000,  1118.50000
    250.14,  2789.40000,  1103.60000
    250.62,  2764.90000,  1109.40000
    251.11,  2740.40000,  1106.60000
    251.59,  2723.60000,  1114.20000
    252.08,  2702.40000,  1126.00000
    252.57,  2718.20000,  1129.60000
    253.05,  2723.10000,  1124.50000
    253.54,  2762.50000,  1116.70000
    254.02,  2784.20000,  1120.60000
    254.51,  2790.60000,  1117.90000
    254.99,  2783.60000,  1129.50000
    255.48,  2758.00000,  1132.30000
    255.96,  2728.20000,  1141.00000
    256.45,  2756.10000,  1139.10000
    256.94,  2758.40000,  1144.20000
    257.42,  2754.60000,  1139.10000
    257.91,  2758.70000,  1138.80000
    258.39,  2764.70000,  1125.50000
    258.88,  2746.30000,  1135.30000
    259.36,  2760.70000,  1139.00000
    259.85,  2757.40000,  1139.00000
    260.33,  2766.30000,  1150.20000
    260.82,  2789.90000,  1143.70000
    261.30,  2806.40000,  1135.80000
    261.79,  2784.40000,  1139.60000
    262.27,  2754.60000,  1146.10000
    262.76,  2738.60000,  1145.40000
    263.24,  2734.40000,  1157.00000
    263.73,  2765.60000,  1148.80000
    264.22,  2766.60000,  1151.00000
    264.70,  2832.00000,  1153.90000
    265.19,  2853.40000,  1154.00000
    265.67,  2858.00000,  1156.60000
    266.16,  2829.60000,  1161.60000
    266.64,  2803.50000,  1170.90000
    267.13,  2737.20000,  1178.90000
    267.61,  2737.00000,  1188.50000
    268.10,  2757.80000,  1177.90000
    268.58,  2756.60000,  1186.70000
    269.06,  2758.40000,  1180.60000
    269.55,  2778.60000,  1186.90000
    270.03,  2789.50000,  1191.10000
    270.52,  2784.90000,  1207.20000
    271.00,  2796.40000,  1208.50000
    271.49,  2789.20000,  1214.10000
    271.97,  2791.50000,  1206.00000
    272.46,  2801.90000,  1203.70000
    272.94,  2805.50000,  1205.40000
    273.43,  2791.00000,  1225.00000
    273.91,  2760.70000,  1242.40000
    274.40,  2755.40000,  1245.40000
    274.88,  2743.50000,  1245.70000
    275.37,  2747.00000,  1242.50000
    275.85,  2749.80000,  1238.90000
    276.33,  2755.10000,  1241.50000
    276.82,  2767.40000,  1245.20000
    277.30,  2785.60000,  1243.20000
    277.79,  2781.30000,  1248.70000
    278.27,  2792.50000,  1247.20000
    278.76,  2801.60000,  1258.40000
    279.24,  2803.30000,  1269.70000
    279.73,  2793.50000,  1280.60000
    280.21,  2774.90000,  1297.30000
    280.69,  2753.80000,  1301.70000
    281.18,  2761.00000,  1286.90000
    281.66,  2784.70000,  1283.00000
    282.15,  2820.80000,  1288.90000
    282.63,  2818.20000,  1291.80000
    283.11,  2805.80000,  1300.50000
    283.60,  2807.50000,  1297.80000
    284.08,  2815.40000,  1296.20000
    284.57,  2792.40000,  1302.70000
    285.05,  2782.90000,  1318.00000
    285.53,  2758.50000,  1316.70000
    286.02,  2730.10000,  1302.50000
    286.50,  2753.80000,  1291.90000
    286.99,  2776.60000,  1282.10000
    287.47,  2764.50000,  1280.40000
    287.95,  2756.20000,  1278.10000
    288.44,  2747.40000,  1285.40000
    288.92,  2747.70000,  1277.40000
    289.41,  2759.60000,  1282.60000
    289.89,  2786.00000,  1279.00000
    290.37,  2789.00000,  1271.00000
    290.86,  2812.40000,  1260.90000
    291.34,  2777.00000,  1262.50000
    291.82,  2762.60000,  1261.20000
    292.31,  2735.50000,  1259.10000
    292.79,  2748.80000,  1253.60000
    293.28,  2753.10000,  1240.80000
    293.76,  2767.40000,  1236.80000
    294.24,  2769.40000,  1220.20000
    294.73,  2787.20000,  1220.40000
    295.21,  2796.50000,  1207.40000
    295.69,  2812.70000,  1195.00000
    296.18,  2788.60000,  1179.80000
    296.66,  2746.20000,  1168.50000
    297.14,  2740.40000,  1156.60000
    297.63,  2749.30000,  1157.90000
    298.11,  2770.60000,  1157.60000
    298.59,  2807.90000,  1150.10000
    299.08,  2813.70000,  1139.40000
    299.56,  2815.20000,  1122.30000
    300.04,  2835.80000,  1108.70000
    300.53,  2839.70000,  1099.30000
    301.01,  2837.10000,  1091.10000
    301.49,  2819.30000,  1089.80000
    301.98,  2781.30000,  1097.90000
    302.46,  2751.40000,  1107.90000
    302.94,  2749.50000,  1102.20000
    303.42,  2753.30000,  1089.60000
    303.91,  2741.30000,  1072.00000
    304.39,  2726.80000,  1057.40000
    304.87,  2737.50000,  1045.30000
    305.36,  2755.80000,  1045.80000
    305.84,  2791.30000,  1034.30000
    306.32,  2831.60000,  1023.30000
    306.81,  2811.60000,  1019.90000
    307.29,  2777.20000,  1022.10000
    307.77,  2766.60000,  1012.20000
    308.25,  2760.00000,  1020.60000
    308.74,  2775.60000,  1023.60000
    309.22,  2775.60000,  1017.40000
    309.70,  2768.00000,  1000.40000
    310.18,  2753.40000,   996.40000
    310.67,  2767.50000,   984.10000
    311.15,  2788.60000,   975.70000
    311.63,  2803.50000,   987.80000
    312.12,  2806.60000,   986.40000
    312.60,  2779.00000,   991.80000
    313.08,  2740.00000,   999.20000
    313.56,  2722.20000,  1005.00000
    314.05,  2721.50000,   988.70000
    314.53,  2746.70000,   979.10000
    315.01,  2814.10000,   948.30000
    315.49,  2816.70000,   946.40000
    315.98,  2813.10000,   944.50000
    316.46,  2790.00000,   954.80000
    316.94,  2747.40000,   963.10000
    317.42,  2736.40000,   952.20000
    317.90,  2745.10000,   937.90000
    318.39,  2725.40000,   935.50000
    318.87,  2768.60000,   936.80000
    319.35,  2791.40000,   937.40000
    319.83,  2799.70000,   945.10000
    320.32,  2811.60000,   935.90000
    320.80,  2814.60000,   940.70000
    321.28,  2772.90000,   941.10000
    321.76,  2804.30000,   949.20000
    322.24,  2802.00000,   947.00000
    322.73,  2821.90000,   946.40000
    323.21,  2825.20000,   940.70000
    323.69,  2830.10000,   941.80000
    324.17,  2781.60000,   938.00000
    324.65,  2756.60000,   930.10000
    325.14,  2758.70000,   929.20000
    325.62,  2775.20000,   929.70000
    326.10,  2817.60000,   936.60000
    326.58,  2839.80000,   936.10000
    327.06,  2796.70000,   936.30000
    327.55,  2808.00000,   928.60000
    328.03,  2830.70000,   931.10000
    328.51,  2841.90000,   932.60000
    328.99,  2858.70000,   936.90000
    329.47,  2849.80000,   931.80000
    329.95,  2774.40000,   928.00000
    330.44,  2769.30000,   942.50000
    330.92,  2735.00000,   945.10000
    331.40,  2719.20000,   950.10000
    331.88,  2719.20000,   941.00000
    332.36,  2735.20000,   928.90000
    332.84,  2767.50000,   918.50000
    333.33,  2811.60000,   921.20000
    333.81,  2815.00000,   915.10000
    334.29,  2813.50000,   919.80000
    334.77,  2810.70000,   914.40000
    335.25,  2792.50000,   912.20000
    335.73,  2806.70000,   921.30000
    336.21,  2806.30000,   914.50000
    336.69,  2795.40000,   907.30000
    337.18,  2786.40000,   896.60000
    337.66,  2768.00000,   891.70000
    338.14,  2747.60000,   893.10000
    338.62,  2732.30000,   905.20000
    339.10,  2754.80000,   912.20000
    339.58,  2798.30000,   908.40000
    340.06,  2819.10000,   905.80000
    340.54,  2830.30000,   898.00000
    341.03,  2819.30000,   891.90000
    341.51,  2788.10000,   877.50000
    341.99,  2784.90000,   878.00000
    342.47,  2791.80000,   875.70000
    342.95,  2784.10000,   888.70000
    343.43,  2783.50000,   888.60000
    343.91,  2781.70000,   890.50000
    344.39,  2760.90000,   882.80000
    344.87,  2743.30000,   888.30000
    345.35,  2764.10000,   888.20000
    345.84,  2773.90000,   892.30000
    346.32,  2818.10000,   886.70000
    346.80,  2831.90000,   886.40000
    347.28,  2824.70000,   887.30000
    347.76,  2797.30000,   890.90000
    348.24,  2800.20000,   893.60000
    348.72,  2822.40000,   895.20000
    349.20,  2847.10000,   890.40000
    349.68,  2826.60000,   890.00000
    350.16,  2790.00000,   892.40000
    350.64,  2747.40000,   888.40000
    351.12,  2733.20000,   890.30000
    351.60,  2795.60000,   882.80000
    352.08,  2843.20000,   878.40000
    352.56,  2861.20000,   884.70000
    353.04,  2850.90000,   892.90000
    353.53,  2829.20000,   887.40000
    354.01,  2802.20000,   881.80000
    354.49,  2830.10000,   873.00000
    354.97,  2829.40000,   877.50000
    355.45,  2825.40000,   897.40000
    355.93,  2799.60000,   901.90000
    356.41,  2804.70000,   906.90000
    356.89,  2786.10000,   902.60000
    357.37,  2804.00000,   898.20000
    357.85,  2778.90000,   896.80000
    358.33,  2762.50000,   903.10000
    358.81,  2738.40000,   896.20000
    359.29,  2755.50000,   889.10000
    359.77,  2779.70000,   886.80000
    360.25,  2808.60000,   886.50000
    360.73,  2805.80000,   878.50000
    361.21,  2786.90000,   883.50000
    361.69,  2793.10000,   884.30000
    362.17,  2795.60000,   878.40000
    362.65,  2808.70000,   883.40000
    363.13,  2814.40000,   896.00000
    363.61,  2824.50000,   890.00000
    364.09,  2797.10000,   897.30000
    364.57,  2793.10000,   897.20000
    365.05,  2789.30000,   894.90000
    365.53,  2769.10000,   894.90000
    366.01,  2784.50000,   899.80000
    366.49,  2830.70000,   888.80000
    366.97,  2793.60000,   896.20000
    367.45,  2799.30000,   900.30000
    367.93,  2822.70000,   908.60000
    368.41,  2808.60000,   914.70000
    368.89,  2808.30000,   915.30000
    369.37,  2823.40000,   904.70000
    369.85,  2768.20000,   905.60000
    370.33,  2783.40000,   907.70000
    370.80,  2806.50000,   906.40000
    371.28,  2810.80000,   901.80000
    371.76,  2786.90000,   908.20000
    372.24,  2778.00000,   909.10000
    372.72,  2770.00000,   918.10000
    373.20,  2784.00000,   923.20000
    373.68,  2813.40000,   916.60000
    374.16,  2832.20000,   912.00000
    374.64,  2817.80000,   905.70000
    375.12,  2793.50000,   909.70000
    375.60,  2819.50000,   914.10000
    376.08,  2794.60000,   916.30000
    376.56,  2788.00000,   920.60000
    377.04,  2780.80000,   919.80000
    377.52,  2794.60000,   899.20000
    377.99,  2787.50000,   900.80000
    378.47,  2814.80000,   908.90000
    378.95,  2799.70000,   915.90000
    379.43,  2809.60000,   932.40000
    379.91,  2810.50000,   936.50000
    380.39,  2862.10000,   927.30000
    380.87,  2882.90000,   924.90000
    381.35,  2874.60000,   923.50000
    381.83,  2852.20000,   918.30000
    382.31,  2808.20000,   931.40000
    382.79,  2762.50000,   940.30000
    383.26,  2771.50000,   949.90000
    383.74,  2771.10000,   953.80000
    384.22,  2776.10000,   942.90000
    384.70,  2787.70000,   935.90000
    385.18,  2761.20000,   929.30000
    385.66,  2765.60000,   935.20000
    386.14,  2774.50000,   942.00000
    386.62,  2791.60000,   945.40000
    387.09,  2813.30000,   943.60000
    387.57,  2822.10000,   959.10000
    388.05,  2808.50000,   954.90000
    388.53,  2796.40000,   967.80000
    389.01,  2795.60000,   975.20000
    389.49,  2816.20000,   975.40000
    389.97,  2818.10000,   974.00000
    390.44,  2808.80000,   978.20000
    390.92,  2792.40000,   971.10000
    391.40,  2773.70000,   967.80000
    391.88,  2778.70000,   959.50000
    392.36,  2794.50000,   952.90000
    392.84,  2796.40000,   945.50000
    393.32,  2803.10000,   947.20000
    393.79,  2792.40000,   954.90000
    394.27,  2841.60000,   961.80000
    394.75,  2841.30000,   965.50000
    395.23,  2840.30000,   963.30000
    395.71,  2822.20000,   960.70000
    396.18,  2818.70000,   963.50000
    396.66,  2819.70000,   966.20000
    397.14,  2852.40000,   965.70000
    397.62,  2816.40000,   960.10000
    398.10,  2811.20000,   961.10000
    398.58,  2799.70000,   969.00000
    399.05,  2813.50000,   972.70000
    399.53,  2821.20000,   971.90000
    400.01,  2816.60000,   964.40000
    400.49,  2791.60000,   946.20000
    400.97,  2771.80000,   947.30000
    401.44,  2737.60000,   955.50000
    401.92,  2760.40000,   968.30000
    402.40,  2763.80000,   973.60000
    402.88,  2794.20000,   971.40000
    403.36,  2812.10000,   963.80000
    403.83,  2829.90000,   957.40000
    404.31,  2792.00000,   949.40000
    404.79,  2798.10000,   954.50000
    405.27,  2775.10000,   959.90000
    405.74,  2768.80000,   952.70000
    406.22,  2794.00000,   949.10000
    406.70,  2826.00000,   942.50000
    407.18,  2806.90000,   937.50000
    407.65,  2799.10000,   928.00000
    408.13,  2763.40000,   930.60000
    408.61,  2774.20000,   916.10000
    409.09,  2784.70000,   917.60000
    409.56,  2793.50000,   924.10000
    410.04,  2803.20000,   932.70000
    410.52,  2801.10000,   927.80000
    411.00,  2768.20000,   931.50000
    411.47,  2769.40000,   915.20000
    411.95,  2755.20000,   909.90000
    412.43,  2758.60000,   905.90000
    412.91,  2772.80000,   893.60000
    413.38,  2789.40000,   896.00000
    413.86,  2792.20000,   905.70000
    414.34,  2787.20000,   910.20000
    414.82,  2798.40000,   906.20000
    415.29,  2799.20000,   904.60000
    415.77,  2812.30000,   891.00000
    416.25,  2815.90000,   888.80000
    416.72,  2808.30000,   890.20000
    417.20,  2787.90000,   891.10000
    417.68,  2758.60000,   883.60000
    418.16,  2754.40000,   886.50000
    418.63,  2782.40000,   891.80000
    419.11,  2791.80000,   890.30000
    419.59,  2799.20000,   890.50000
    420.06,  2770.20000,   880.60000
    420.54,  2732.40000,   877.50000
    421.02,  2753.00000,   873.90000
    421.50,  2784.40000,   874.10000
    421.97,  2797.80000,   863.60000
    422.45,  2797.30000,   858.30000
    422.93,  2782.90000,   846.00000
    423.40,  2760.20000,   847.90000
    423.88,  2764.00000,   844.10000
    424.36,  2769.30000,   854.80000
    424.83,  2776.10000,   866.40000
    425.31,  2793.70000,   871.30000
    425.79,  2841.90000,   871.70000
    426.26,  2884.70000,   869.50000
    426.74,  2860.00000,   868.40000
    427.22,  2837.60000,   871.30000
    427.69,  2812.20000,   878.90000
    428.17,  2788.60000,   872.20000
    428.65,  2778.30000,   866.90000
    429.12,  2823.40000,   857.30000
    429.60,  2803.20000,   853.30000
    430.08,  2805.20000,   860.20000
    430.55,  2806.90000,   861.80000
    431.03,  2806.20000,   859.90000
    431.50,  2803.40000,   861.40000
    431.98,  2808.50000,   862.40000
    432.46,  2812.50000,   860.30000
    432.93,  2783.00000,   873.80000
    433.41,  2763.80000,   862.50000
    433.89,  2762.80000,   857.90000
    434.36,  2770.80000,   856.10000
    434.84,  2769.50000,   852.00000
    435.31,  2792.30000,   854.90000
    435.79,  2788.70000,   854.00000
    436.27,  2780.40000,   848.20000
    436.74,  2774.00000,   851.30000
    437.22,  2783.20000,   845.60000
    437.70,  2780.80000,   846.70000
    438.17,  2774.80000,   850.40000
    438.65,  2772.20000,   841.40000
    439.12,  2778.50000,   843.80000
    439.60,  2779.20000,   843.40000
    440.08,  2795.60000,   841.90000
    440.55,  2781.00000,   856.00000
    441.03,  2792.20000,   856.10000
    441.50,  2784.60000,   857.00000
    441.98,  2802.20000,   849.10000
    442.45,  2796.60000,   840.20000
    442.93,  2793.70000,   835.90000
    443.41,  2776.50000,   846.80000
    443.88,  2784.90000,   848.70000
    444.36,  2770.40000,   857.70000
    444.83,  2778.50000,   849.50000
    445.31,  2776.00000,   847.60000
    445.78,  2749.10000,   849.90000
    446.26,  2741.40000,   861.00000
    446.74,  2741.90000,   860.20000
    447.21,  2765.10000,   857.40000
    447.69,  2790.20000,   848.80000
    448.16,  2816.30000,   846.00000
    448.64,  2794.30000,   851.40000
    449.11,  2783.00000,   843.80000
    449.59,  2783.10000,   849.10000
    450.06,  2787.60000,   847.10000
    450.54,  2777.90000,   856.90000
    451.02,  2803.60000,   856.70000
    451.49,  2806.50000,   858.00000
    451.97,  2809.30000,   845.60000
    452.44,  2800.00000,   850.90000
    452.92,  2788.70000,   846.10000
    453.39,  2768.90000,   850.00000
    453.87,  2779.50000,   845.20000
    454.34,  2782.40000,   842.60000
    454.82,  2788.70000,   846.20000
    455.29,  2798.00000,   848.90000
    455.77,  2804.40000,   844.40000
    456.24,  2778.70000,   836.40000
    456.72,  2751.70000,   845.70000
    457.19,  2748.60000,   839.20000
    457.67,  2756.00000,   847.50000
    458.14,  2784.40000,   856.70000
    458.62,  2794.70000,   851.10000
    459.09,  2793.10000,   844.60000
    459.57,  2771.10000,   847.10000
    460.04,  2781.00000,   839.20000
    460.52,  2773.00000,   853.60000
    460.99,  2760.10000,   869.50000
    461.47,  2753.60000,   862.70000
    461.94,  2739.10000,   852.50000
    462.42,  2742.10000,   832.30000
    462.89,  2759.30000,   833.40000
    463.37,  2774.90000,   840.10000
    463.84,  2780.60000,   855.70000
    464.32,  2783.10000,   864.50000
    464.79,  2781.70000,   857.70000
    465.26,  2789.80000,   850.80000
    465.74,  2777.80000,   844.60000
    466.21,  2801.40000,   837.10000
    466.69,  2809.50000,   844.70000
    467.16,  2810.30000,   846.30000
    467.64,  2795.80000,   841.20000
    468.11,  2779.90000,   846.10000
    468.59,  2772.10000,   845.00000
    469.06,  2786.80000,   850.50000
    469.54,  2806.90000,   852.60000
    470.01,  2807.60000,   853.90000
    470.48,  2765.10000,   856.40000
    470.96,  2780.60000,   864.10000
    471.43,  2800.30000,   868.50000
    471.91,  2821.70000,   866.10000
    472.38,  2856.40000,   852.70000
    472.86,  2836.60000,   842.10000
    473.33,  2779.70000,   838.20000
    473.80,  2776.60000,   842.40000
    474.28,  2775.50000,   857.50000
    474.75,  2785.20000,   865.20000
    475.23,  2821.30000,   863.90000
    475.70,  2832.70000,   842.50000
    476.17,  2813.00000,   834.60000
    476.65,  2817.90000,   827.90000
    477.12,  2812.10000,   842.30000
    477.60,  2771.00000,   846.90000
    478.07,  2770.50000,   845.50000
    478.54,  2790.20000,   828.10000
    479.02,  2790.00000,   838.70000
    479.49,  2818.10000,   846.00000
    479.97,  2822.50000,   859.30000
    480.44,  2803.20000,   867.90000
    480.91,  2778.30000,   851.40000
    481.39,  2772.40000,   843.00000
    481.86,  2766.20000,   844.70000
    482.34,  2750.20000,   848.70000
    482.81,  2773.00000,   848.00000
    483.28,  2803.50000,   855.00000
    483.76,  2799.80000,   850.20000
    484.23,  2824.00000,   858.40000
    484.70,  2818.90000,   855.80000
    485.18,  2800.90000,   861.00000
    485.65,  2806.10000,   850.90000
    486.12,  2801.80000,   847.50000
    486.60,  2772.40000,   849.80000
    487.07,  2775.40000,   846.50000
    487.55,  2794.30000,   853.60000
    488.02,  2809.80000,   860.10000
    488.49,  2818.30000,   856.70000
    488.97,  2833.70000,   853.20000
    489.44,  2825.30000,   850.40000
    489.91,  2788.20000,   853.40000
    490.39,  2776.90000,   866.90000
    490.86,  2735.90000,   866.90000
    491.33,  2703.60000,   866.50000
    491.81,  2747.90000,   859.90000
    492.28,  2791.60000,   856.00000
    492.75,  2782.40000,   862.70000
    493.23,  2830.80000,   863.30000
    493.70,  2845.00000,   858.90000
    494.17,  2838.00000,   852.20000
    494.64,  2832.00000,   852.10000
    495.12,  2793.40000,   849.20000
    495.59,  2787.30000,   859.50000
    496.06,  2822.30000,   856.50000
    496.54,  2842.90000,   861.50000
    497.01,  2831.20000,   858.00000
    497.48,  2814.50000,   857.10000
    497.96,  2787.90000,   852.90000
    498.43,  2817.60000,   854.90000
    498.90,  2824.80000,   853.30000
    499.37,  2848.10000,   850.40000
    499.85,  2821.60000,   850.50000
    500.32,  2815.50000,   842.70000
    500.79,  2791.80000,   847.30000
    501.27,  2800.30000,   845.30000
    501.74,  2794.30000,   854.40000
    502.21,  2794.40000,   850.20000
    502.68,  2780.10000,   856.30000
    503.16,  2767.60000,   851.60000
    503.63,  2756.20000,   844.10000
    504.10,  2777.10000,   833.40000
    504.57,  2773.40000,   836.80000
    505.05,  2792.50000,   838.90000
    505.52,  2809.80000,   846.80000
    505.99,  2801.00000,   851.20000
    506.46,  2791.90000,   847.90000
    506.94,  2773.60000,   846.50000
    507.41,  2754.70000,   854.70000
    507.88,  2758.80000,   859.10000
    508.35,  2761.60000,   856.60000
    508.83,  2753.80000,   858.40000
    509.30,  2787.20000,   858.10000
    509.77,  2790.20000,   855.50000
    510.24,  2796.20000,   844.80000
    510.72,  2783.30000,   840.40000
    511.19,  2767.50000,   837.20000
    511.66,  2761.80000,   841.90000
    512.13,  2787.50000,   849.00000
    512.60,  2776.00000,   845.40000
    513.08,  2768.20000,   839.00000
    513.55,  2764.50000,   831.40000
    514.02,  2745.50000,   835.20000
    514.49,  2749.20000,   836.50000
    514.97,  2761.80000,   840.70000
    515.44,  2777.50000,   844.80000
    515.91,  2774.00000,   854.10000
    516.38,  2776.50000,   851.80000
    516.85,  2741.30000,   853.50000
    517.33,  2719.20000,   852.60000
    517.80,  2723.90000,   840.90000
    518.27,  2753.90000,   833.30000
    518.74,  2797.80000,   825.80000
    519.21,  2819.80000,   828.40000
    519.68,  2796.70000,   835.80000
    520.16,  2766.90000,   842.60000
    520.63,  2753.30000,   838.60000
    521.10,  2751.30000,   830.60000
    521.57,  2775.10000,   819.40000
    522.04,  2783.60000,   812.30000
    522.52,  2776.90000,   823.80000
    522.99,  2759.80000,   831.40000
    523.46,  2771.80000,   849.30000
    523.93,  2782.40000,   858.00000
    524.40,  2804.00000,   856.00000
    524.87,  2803.90000,   832.30000
    525.34,  2790.80000,   832.90000
    525.82,  2776.30000,   825.50000
    526.29,  2785.30000,   829.30000
    526.76,  2783.50000,   831.90000
    527.23,  2791.60000,   838.70000
    527.70,  2776.90000,   833.50000
    528.17,  2770.90000,   841.10000
    528.64,  2768.70000,   836.60000
    529.12,  2779.90000,   834.70000
    529.59,  2773.00000,   839.70000
    530.06,  2772.10000,   845.60000
    530.53,  2808.20000,   852.10000
    531.00,  2787.50000,   848.60000
    531.47,  2746.40000,   840.30000
    531.94,  2741.20000,   840.00000
    532.41,  2730.90000,   843.20000
    532.89,  2750.20000,   839.10000
    533.36,  2813.90000,   840.20000
    533.83,  2799.80000,   835.60000
    534.30,  2781.10000,   827.70000
    534.77,  2790.80000,   837.50000
    535.24,  2796.20000,   840.70000
    535.71,  2794.40000,   841.70000
    536.18,  2808.20000,   838.80000
    536.65,  2796.00000,   847.70000
    537.13,  2771.80000,   839.30000
    537.60,  2745.90000,   852.80000
    538.07,  2748.10000,   851.50000
    538.54,  2733.80000,   859.90000
    539.01,  2759.00000,   848.20000
    539.48,  2795.00000,   860.70000
    539.95,  2810.70000,   855.60000
    540.42,  2813.30000,   864.60000
    540.89,  2798.80000,   862.70000
    541.36,  2769.20000,   867.70000
    541.83,  2763.50000,   855.20000
    542.30,  2768.20000,   849.70000
    542.77,  2780.40000,   849.70000
    543.25,  2810.40000,   845.10000
    543.72,  2806.20000,   857.80000
    544.19,  2801.60000,   864.00000
    544.66,  2775.50000,   865.00000
    545.13,  2761.20000,   858.00000
    545.60,  2750.00000,   848.60000
    546.07,  2781.50000,   830.90000
    546.54,  2791.10000,   836.10000
    547.01,  2798.20000,   843.90000
    547.48,  2797.70000,   846.90000
    547.95,  2782.30000,   863.20000
    548.42,  2763.40000,   867.20000
    548.89,  2786.60000,   869.50000
    549.36,  2779.10000,   865.50000
    549.83,  2761.10000,   867.90000
    550.30,  2813.60000,   855.50000
    550.77,  2815.00000,   861.40000
    551.24,  2819.10000,   868.00000
    551.71,  2834.30000,   868.00000
    552.18,  2807.80000,   869.40000
    552.65,  2754.00000,   869.30000
    553.12,  2784.70000,   857.40000
    553.59,  2786.80000,   855.40000
    554.06,  2789.20000,   857.10000
    554.53,  2799.40000,   855.00000
    555.00,  2783.90000,   871.80000
    555.47,  2770.70000,   880.90000
    555.94,  2767.90000,   879.30000
    556.41,  2767.90000,   879.90000
    556.88,  2750.80000,   878.10000
    557.35,  2750.40000,   874.70000
    557.82,  2749.00000,   873.60000
    558.29,  2763.30000,   874.10000
    558.76,  2800.50000,   869.40000
    559.23,  2817.70000,   871.50000
    559.70,  2818.50000,   869.60000
    560.17,  2803.10000,   873.10000
    560.64,  2792.70000,   878.30000
    561.11,  2769.20000,   889.60000
    561.58,  2793.30000,   884.70000
    562.05,  2779.20000,   881.10000
    562.52,  2794.50000,   870.50000
    562.99,  2792.10000,   867.20000
    563.46,  2800.90000,   877.40000
    563.93,  2783.90000,   893.50000
    564.40,  2794.60000,   895.40000
    564.87,  2789.10000,   898.50000
    565.34,  2811.70000,   888.20000
    565.81,  2805.30000,   877.90000
    566.28,  2800.20000,   876.10000
    566.74,  2777.90000,   876.30000
    567.21,  2766.30000,   885.70000
    567.68,  2780.30000,   891.20000
    568.15,  2781.90000,   881.50000
    568.62,  2777.90000,   878.60000
    569.09,  2768.80000,   885.30000
    569.56,  2763.80000,   887.70000
    570.03,  2758.70000,   896.40000
    570.50,  2797.80000,   901.90000
    570.97,  2805.10000,   887.10000
    571.44,  2796.10000,   882.10000
    571.91,  2797.00000,   875.70000
    572.38,  2789.70000,   870.10000
    572.84,  2770.20000,   866.50000
    573.31,  2779.90000,   881.10000
    573.78,  2776.60000,   883.80000
    574.25,  2761.40000,   901.10000
    574.72,  2779.70000,   905.10000
    575.19,  2770.40000,   915.30000
    575.66,  2771.20000,   916.90000
    576.13,  2768.40000,   918.50000
    576.60,  2780.90000,   916.50000
    577.07,  2805.00000,   914.50000
    577.53,  2827.50000,   905.30000
    578.00,  2814.90000,   903.40000
    578.47,  2810.80000,   888.80000
    578.94,  2784.00000,   876.00000
    579.41,  2753.50000,   885.50000
    579.88,  2769.70000,   892.50000
    580.35,  2772.30000,   906.80000
    580.82,  2772.20000,   919.80000
    581.28,  2787.70000,   929.00000
    581.75,  2789.90000,   920.30000
    582.22,  2779.20000,   911.80000
    582.69,  2787.80000,   905.40000
    583.16,  2786.70000,   897.10000
    583.63,  2784.80000,   890.30000
    584.10,  2811.70000,   898.10000
    584.56,  2830.80000,   902.20000
    585.03,  2821.40000,   895.90000
    585.50,  2798.70000,   905.80000
    585.97,  2767.50000,   895.40000
    586.44,  2762.20000,   889.00000
    586.91,  2783.60000,   879.40000
    587.37,  2793.30000,   880.80000
    587.84,  2781.40000,   880.90000
    588.31,  2767.40000,   893.30000
    588.78,  2742.60000,   895.20000
    589.25,  2774.20000,   903.40000
    589.72,  2772.70000,   896.70000
    590.18,  2800.80000,   895.60000
    590.65,  2820.10000,   897.60000
    591.12,  2800.20000,   896.90000
    591.59,  2795.70000,   899.70000
    592.06,  2785.40000,   900.70000
    592.52,  2746.80000,   888.60000
    592.99,  2768.70000,   888.80000
    593.46,  2766.80000,   897.30000
    593.93,  2728.10000,   892.80000
    594.40,  2749.00000,   899.60000
    594.86,  2768.40000,   904.30000
    595.33,  2778.00000,   902.90000
    595.80,  2797.40000,   905.00000
    596.27,  2803.30000,   904.80000
    596.74,  2786.60000,   897.00000
    597.20,  2778.60000,   898.70000
    597.67,  2786.60000,   898.10000
    598.14,  2763.30000,   902.60000
    598.61,  2755.00000,   910.40000
    599.07,  2764.10000,   908.90000
    599.54,  2751.90000,   917.50000
    600.01,  2739.80000,   918.00000
    600.48,  2797.50000,   900.10000
    600.95,  2826.80000,   888.20000
    601.41,  2841.40000,   885.60000
    601.88,  2828.60000,   880.80000
    602.35,  2773.50000,   889.70000
    602.82,  2719.50000,   894.00000
    603.28,  2740.10000,   883.70000
    603.75,  2742.40000,   881.10000
    604.22,  2761.20000,   883.90000
    604.69,  2767.90000,   891.20000
    605.15,  2777.30000,   891.40000
    605.62,  2764.30000,   894.80000
    606.09,  2765.20000,   890.00000
    606.56,  2750.80000,   885.60000
    607.02,  2749.40000,   888.60000
    607.49,  2748.10000,   886.50000
    607.96,  2779.60000,   873.50000
    608.42,  2774.30000,   880.10000
    608.89,  2825.30000,   883.90000
    609.36,  2837.50000,   885.70000
    609.83,  2813.40000,   895.20000
    610.29,  2781.30000,   888.70000
    610.76,  2754.50000,   887.00000
    611.23,  2735.20000,   895.10000
    611.69,  2762.90000,   896.70000
    612.16,  2767.40000,   891.10000
    612.63,  2770.80000,   887.00000
    613.10,  2764.00000,   876.80000
    613.56,  2750.80000,   868.80000
    614.03,  2757.90000,   868.30000
    614.50,  2763.30000,   866.30000
    614.96,  2770.60000,   867.60000
    615.43,  2774.80000,   867.50000
    615.90,  2786.90000,   873.40000
    616.36,  2787.80000,   870.50000
    616.83,  2767.80000,   869.20000
    617.30,  2769.10000,   865.10000
    617.76,  2748.10000,   866.00000
    618.23,  2730.90000,   859.80000
    618.70,  2732.30000,   854.40000
    619.16,  2750.80000,   851.00000
    619.63,  2747.60000,   847.80000
    620.10,  2753.10000,   855.00000
    620.56,  2747.70000,   851.60000
    621.03,  2768.70000,   852.50000
    621.50,  2779.30000,   838.10000
    621.96,  2790.70000,   836.90000
    622.43,  2791.30000,   835.50000
    622.90,  2787.30000,   843.10000
    623.36,  2793.20000,   838.00000
    623.83,  2792.90000,   849.60000
    624.30,  2788.30000,   843.10000
    624.76,  2784.30000,   850.90000
    625.23,  2785.50000,   855.00000
    625.70,  2793.80000,   860.70000
    626.16,  2800.30000,   849.50000
    626.63,  2771.50000,   845.00000
    627.09,  2768.80000,   835.90000
    627.56,  2777.10000,   842.80000
    628.03,  2767.40000,   851.80000
    628.49,  2778.60000,   851.90000
    628.96,  2761.40000,   847.00000
    629.43,  2755.10000,   843.10000
    629.89,  2756.50000,   839.50000
    630.36,  2769.60000,   840.80000
    630.82,  2760.90000,   841.80000
    631.29,  2763.30000,   835.00000
    631.76,  2742.10000,   840.80000
    632.22,  2727.70000,   845.50000
    632.69,  2736.60000,   852.40000
    633.15,  2758.60000,   858.30000
    633.62,  2792.50000,   849.90000
    634.09,  2813.00000,   837.80000
    634.55,  2811.40000,   834.00000
    635.02,  2774.20000,   832.50000
    635.48,  2765.50000,   827.30000
    635.95,  2742.60000,   842.10000
    636.42,  2753.90000,   835.70000
    636.88,  2747.20000,   842.70000
    637.35,  2744.60000,   847.10000
    637.81,  2758.40000,   842.80000
    638.28,  2767.60000,   839.70000
    638.74,  2782.80000,   836.10000
    639.21,  2790.50000,   827.00000
    639.68,  2764.50000,   824.90000
    640.14,  2731.90000,   825.50000
    640.61,  2747.50000,   825.00000
    641.07,  2721.90000,   835.50000
    641.54,  2749.50000,   832.60000
    642.00,  2766.60000,   836.20000
    642.47,  2785.70000,   823.90000
    642.93,  2774.70000,   830.80000
    643.40,  2776.50000,   835.50000
    643.87,  2750.40000,   843.20000
    644.33,  2756.60000,   841.20000
    644.80,  2769.00000,   831.30000
    645.26,  2764.50000,   820.50000
    645.73,  2754.60000,   822.00000
    646.19,  2749.70000,   824.20000
    646.66,  2750.00000,   828.80000
    647.12,  2743.60000,   825.30000
    647.59,  2752.50000,   822.30000
    648.05,  2760.20000,   834.10000
    648.52,  2752.00000,   843.40000
    648.98,  2742.50000,   853.00000
    649.45,  2728.70000,   853.40000
    649.91,  2712.10000,   844.70000
    650.38,  2713.80000,   842.10000
    650.84,  2767.20000,   838.90000
    651.31,  2765.30000,   834.80000
    651.77,  2764.40000,   836.00000
    652.24,  2740.80000,   831.80000
    652.70,  2728.30000,   824.50000
    653.17,  2710.60000,   839.10000
    653.63,  2741.40000,   843.40000
    654.10,  2733.30000,   851.90000
    654.56,  2746.40000,   853.00000
    655.03,  2744.80000,   845.40000
    655.49,  2762.30000,   830.60000
    655.96,  2758.70000,   831.90000
    656.42,  2751.90000,   832.80000
    656.89,  2732.20000,   845.80000
    657.35,  2786.80000,   841.80000
    657.82,  2828.80000,   847.40000
    658.28,  2860.80000,   842.90000
    658.75,  2873.00000,   838.00000
    659.21,  2830.80000,   836.00000
    659.68,  2797.00000,   829.80000
    660.14,  2791.60000,   821.90000
    660.61,  2753.80000,   822.40000
    661.07,  2776.50000,   827.20000
    661.53,  2790.40000,   830.00000
    662.00,  2813.30000,   829.10000
    662.46,  2811.30000,   828.60000
    662.93,  2796.80000,   825.00000
    663.39,  2767.50000,   809.90000
    663.86,  2790.80000,   815.40000
    664.32,  2782.50000,   820.60000
    664.79,  2807.00000,   821.30000
    665.25,  2789.60000,   828.60000
    665.71,  2769.60000,   823.30000
    666.18,  2742.00000,   811.40000
    666.64,  2761.90000,   812.40000
    667.11,  2758.80000,   818.30000
    667.57,  2776.60000,   815.20000
    668.04,  2787.00000,   818.10000
    668.50,  2776.20000,   813.40000
    668.96,  2759.60000,   810.40000
    669.43,  2777.40000,   815.00000
    669.89,  2753.40000,   822.90000
    670.36,  2730.40000,   833.30000
    670.82,  2730.40000,   826.40000
    671.28,  2739.20000,   815.10000
    671.75,  2750.70000,   808.60000
    672.21,  2776.40000,   808.80000
    672.68,  2779.60000,   805.20000
    673.14,  2785.40000,   819.40000
    673.60,  2802.00000,   817.70000
    674.07,  2780.10000,   819.80000
    674.53,  2753.60000,   813.40000
    675.00,  2739.30000,   816.40000
    675.46,  2729.70000,   809.50000
    675.92,  2734.50000,   803.10000
    676.39,  2771.20000,   803.50000
    676.85,  2777.30000,   792.80000
    677.31,  2784.70000,   792.30000
    677.78,  2787.50000,   799.10000
    678.24,  2775.10000,   798.10000
    678.70,  2758.70000,   791.20000
    679.17,  2743.60000,   787.70000
    679.63,  2720.30000,   783.60000
    680.10,  2714.10000,   797.30000
    680.56,  2737.90000,   806.20000
    681.02,  2739.90000,   807.90000
    681.49,  2774.30000,   804.10000
    681.95,  2772.10000,   798.70000
    682.41,  2763.30000,   793.50000
    682.88,  2753.40000,   790.20000
    683.34,  2748.70000,   794.20000
    683.80,  2725.60000,   796.40000
    684.27,  2747.20000,   802.00000
    684.73,  2752.10000,   806.80000
    685.19,  2774.60000,   812.40000
    685.66,  2804.10000,   798.80000
    686.12,  2799.70000,   799.60000
    686.58,  2808.80000,   798.50000
    687.05,  2806.40000,   796.60000
    687.51,  2791.10000,   790.20000
    687.97,  2784.80000,   792.90000
    688.44,  2789.00000,   790.30000
    688.90,  2780.40000,   791.70000
    689.36,  2780.40000,   787.00000
    689.83,  2780.30000,   785.30000
    690.29,  2786.50000,   785.70000
    690.75,  2798.50000,   784.40000
    691.21,  2804.50000,   791.50000
    691.68,  2791.80000,   790.30000
    692.14,  2763.00000,   793.10000
    692.60,  2774.00000,   798.80000
    693.07,  2759.90000,   805.50000
    693.53,  2771.00000,   804.80000
    693.99,  2784.80000,   790.60000
    694.45,  2777.40000,   790.90000
    694.92,  2787.70000,   792.90000
    695.38,  2800.80000,   790.50000
    695.84,  2790.70000,   783.00000
    696.31,  2771.60000,   794.80000
    696.77,  2791.10000,   792.50000
    697.23,  2779.80000,   804.80000
    697.69,  2782.70000,   801.20000
    698.16,  2765.50000,   795.70000
    698.62,  2757.70000,   781.50000
    699.08,  2735.00000,   785.00000
    699.54,  2744.60000,   792.60000
    700.01,  2736.90000,   794.30000
    700.47,  2723.40000,   793.40000
    700.93,  2725.50000,   785.00000
    701.39,  2733.40000,   787.60000
    701.86,  2747.00000,   785.40000
    702.32,  2746.20000,   787.40000
    702.78,  2758.00000,   787.40000
    703.24,  2757.40000,   784.40000
    703.71,  2764.20000,   776.50000
    704.17,  2772.60000,   784.10000
    704.63,  2763.70000,   791.60000
    705.09,  2745.50000,   794.30000
    705.56,  2774.70000,   795.50000
    706.02,  2780.30000,   784.20000
    706.48,  2757.50000,   780.90000
    706.94,  2759.30000,   774.10000
    707.40,  2749.50000,   769.20000
    707.87,  2756.90000,   759.30000
    708.33,  2774.70000,   759.80000
    708.79,  2761.20000,   759.60000
    709.25,  2724.20000,   768.60000
    709.72,  2723.40000,   776.70000
    710.18,  2742.40000,   771.00000
    710.64,  2742.90000,   768.90000
    711.10,  2739.50000,   774.30000
    711.56,  2756.50000,   773.30000
    712.03,  2772.10000,   774.40000
    712.49,  2792.60000,   776.60000
    712.95,  2809.40000,   769.80000
    713.41,  2776.40000,   783.70000
    713.87,  2770.70000,   784.10000
    714.33,  2780.80000,   782.80000
    714.80,  2772.50000,   778.90000
    715.26,  2736.00000,   776.40000
    715.72,  2728.90000,   776.60000
    716.18,  2712.00000,   786.60000
    716.64,  2732.20000,   781.50000
    717.11,  2748.10000,   773.70000
    717.57,  2748.90000,   764.00000
    718.03,  2723.20000,   760.20000
    718.49,  2725.50000,   763.20000
    718.95,  2768.60000,   764.20000
    719.41,  2777.00000,   768.40000
    719.87,  2750.90000,   765.90000
    720.34,  2737.50000,   769.60000
    720.80,  2729.40000,   769.50000
    721.26,  2715.90000,   770.60000
    721.72,  2757.20000,   769.70000
    722.18,  2747.60000,   769.90000
    722.64,  2723.10000,   773.00000
    723.10,  2728.80000,   781.90000
    723.57,  2741.00000,   777.30000
    724.03,  2749.10000,   778.30000
    724.49,  2751.60000,   780.70000
    724.95,  2721.80000,   772.50000
    725.41,  2776.10000,   780.80000
    725.87,  2821.80000,   784.60000
    726.33,  2837.30000,   783.20000
    726.80,  2843.90000,   780.20000
    727.26,  2801.70000,   770.30000
    727.72,  2728.40000,   750.90000
    728.18,  2737.90000,   756.80000
    728.64,  2729.40000,   764.10000
    729.10,  2733.80000,   778.20000
    729.56,  2750.40000,   785.00000
    730.02,  2773.50000,   777.50000
    730.48,  2773.60000,   766.40000
    730.94,  2763.60000,   771.20000
    731.41,  2749.50000,   776.40000
    731.87,  2731.30000,   778.00000
    732.33,  2716.00000,   778.40000
    732.79,  2744.70000,   773.00000
    733.25,  2750.30000,   763.60000
    733.71,  2759.70000,   766.00000
    734.17,  2768.20000,   770.30000
    734.63,  2748.50000,   765.70000
    735.09,  2728.70000,   768.60000
    735.55,  2727.20000,   766.20000
    736.01,  2722.70000,   759.20000
    736.47,  2734.00000,   755.50000
    736.94,  2740.70000,   752.60000
    737.40,  2753.70000,   750.20000
    737.86,  2748.50000,   758.10000
    738.32,  2754.30000,   767.70000
    738.78,  2766.20000,   773.00000
    739.24,  2756.20000,   782.20000
    739.70,  2749.00000,   775.40000
    740.16,  2764.80000,   774.80000
    740.62,  2769.70000,   769.60000
    741.08,  2786.80000,   774.70000
    741.54,  2779.20000,   769.50000
    742.00,  2764.00000,   771.30000
    742.46,  2734.50000,   769.80000
    742.92,  2704.50000,   773.50000
    743.38,  2704.20000,   774.20000
    743.84,  2708.80000,   773.80000
    744.30,  2729.90000,   764.20000
    744.76,  2756.10000,   748.80000
    745.22,  2755.60000,   748.40000
    745.68,  2726.50000,   757.20000
    746.14,  2705.60000,   776.80000
    746.60,  2706.90000,   783.30000
    747.06,  2722.00000,   781.60000
    747.52,  2715.10000,   766.00000
    747.98,  2742.90000,   754.70000
    748.44,  2742.50000,   756.00000
    748.90,  2736.70000,   756.10000
    749.36,  2745.20000,   756.90000
    749.82,  2755.60000,   750.80000
    750.28,  2764.90000,   746.20000
    750.74,  2789.80000,   746.50000
    751.20,  2782.80000,   758.60000
    751.66,  2762.20000,   760.50000
    752.12,  2740.30000,   767.30000
    752.58,  2741.30000,   766.50000
    753.04,  2759.20000,   773.30000
    753.50,  2794.40000,   771.30000
    753.96,  2773.50000,   785.50000
    754.42,  2753.80000,   773.70000
    754.88,  2735.60000,   760.50000
    755.34,  2728.70000,   751.10000
    755.80,  2745.50000,   750.50000
    756.26,  2763.00000,   747.00000
    756.72,  2752.00000,   762.00000
    757.18,  2757.90000,   765.00000
    757.64,  2741.30000,   777.70000
    758.10,  2714.50000,   783.40000
    758.56,  2700.80000,   778.60000
    759.02,  2711.00000,   767.70000
    759.48,  2714.90000,   761.20000
    759.94,  2738.00000,   760.50000
    760.40,  2740.50000,   766.80000
    760.86,  2744.10000,   758.80000
    761.32,  2748.60000,   758.60000
    761.78,  2780.50000,   759.90000
    762.24,  2751.80000,   757.00000
    762.70,  2754.10000,   797.80000
    763.15,  2739.30000,   825.50000
    763.61,  2746.20000,   828.10000
    764.07,  2749.40000,   826.70000
    764.53,  2751.00000,   803.60000
    764.99,  2748.40000,   768.60000
    765.45,  2767.40000,   775.30000
    765.91,  2755.10000,   781.40000
    766.37,  2744.70000,   778.40000
    766.83,  2719.70000,   770.70000
    767.29,  2719.30000,   760.70000
    767.75,  2730.70000,   752.10000
    768.21,  2746.30000,   756.00000
    768.66,  2750.10000,   770.20000
    769.12,  2750.30000,   782.30000
    769.58,  2725.80000,   780.90000
    770.04,  2715.60000,   779.20000
    770.50,  2691.20000,   780.90000
    770.96,  2682.10000,   774.90000
    771.42,  2711.60000,   764.40000
    771.88,  2729.90000,   765.30000
    772.34,  2739.90000,   757.80000
    772.80,  2737.20000,   745.20000
    773.25,  2716.10000,   753.40000
    773.71,  2711.50000,   759.30000
    774.17,  2698.80000,   762.60000
    774.63,  2710.00000,   773.60000
    775.09,  2717.00000,   781.70000
    775.55,  2712.30000,   765.10000
    776.01,  2688.90000,   765.00000
    776.47,  2692.00000,   768.30000
    776.92,  2667.00000,   772.90000
    777.38,  2698.20000,   774.60000
    777.84,  2709.70000,   773.70000
    778.30,  2712.10000,   764.90000
    778.76,  2703.40000,   758.20000
    779.22,  2721.10000,   758.20000
    779.68,  2721.00000,   753.70000
    780.13,  2726.50000,   763.00000
    780.59,  2712.80000,   759.90000
    781.05,  2689.80000,   769.00000
    781.51,  2693.50000,   769.70000
    781.97,  2711.70000,   771.80000
    782.43,  2726.30000,   768.70000
    782.88,  2745.40000,   770.80000
    783.34,  2746.60000,   763.10000
    783.80,  2740.30000,   772.00000
    784.26,  2752.70000,   779.70000
    784.72,  2737.00000,   777.70000
    785.18,  2721.80000,   779.90000
    785.63,  2712.70000,   762.70000
    786.09,  2726.30000,   771.10000
    786.55,  2755.60000,   771.70000
    787.01,  2773.40000,   780.60000
    787.47,  2762.50000,   768.90000
    787.92,  2742.10000,   764.80000
    788.38,  2714.20000,   757.80000
    788.84,  2701.70000,   767.00000
    789.30,  2706.80000,   768.80000
    789.76,  2712.00000,   775.20000
    790.21,  2719.90000,   773.20000
    790.67,  2712.30000,   766.90000
    791.13,  2713.30000,   759.80000
    791.59,  2694.50000,   751.50000
    792.05,  2687.40000,   754.80000
    792.50,  2705.80000,   751.40000
    792.96,  2723.90000,   765.90000
    793.42,  2699.00000,   763.60000
    793.88,  2708.60000,   765.20000
    794.33,  2684.10000,   766.20000
    794.79,  2685.00000,   771.10000
    795.25,  2703.30000,   762.40000
    795.71,  2718.60000,   768.00000
    796.17,  2719.50000,   765.10000
    796.62,  2727.20000,   764.60000
    797.08,  2697.70000,   765.20000
    797.54,  2697.70000,   760.70000
    798.00,  2688.00000,   759.00000
    798.45,  2692.10000,   762.60000
    798.91,  2698.40000,   771.70000
    799.37,  2706.30000,   770.90000
    799.83,  2702.60000,   774.10000
    800.28,  2700.30000,   764.20000
    800.74,  2695.40000,   766.60000
    801.20,  2718.20000,   764.90000
    801.66,  2694.60000,   768.20000
    802.11,  2699.40000,   765.30000
    802.57,  2711.10000,   759.30000
    803.03,  2686.10000,   760.80000
    803.48,  2674.70000,   759.40000
    803.94,  2732.30000,   764.50000
    804.40,  2746.50000,   768.10000
    804.86,  2770.60000,   770.10000
    805.31,  2760.00000,   764.50000
    805.77,  2707.40000,   771.00000
    806.23,  2656.20000,   766.00000
    806.69,  2687.40000,   765.50000
    807.14,  2697.40000,   762.90000
    807.60,  2718.20000,   758.40000
    808.06,  2722.30000,   759.00000
    808.51,  2718.80000,   758.40000
    808.97,  2682.80000,   763.30000
    809.43,  2690.50000,   762.80000
    809.88,  2686.00000,   771.10000
    810.34,  2679.50000,   775.20000
    810.80,  2707.00000,   765.10000
    811.26,  2719.20000,   754.90000
    811.71,  2704.70000,   748.00000
    812.17,  2726.50000,   738.50000
    812.63,  2720.90000,   748.40000
    813.08,  2692.80000,   763.80000
    813.54,  2702.60000,   762.00000
    814.00,  2704.90000,   768.10000
    814.45,  2704.10000,   773.90000
    814.91,  2718.70000,   776.90000
    815.37,  2705.90000,   771.80000
    815.82,  2688.60000,   771.10000
    816.28,  2677.50000,   770.10000
    816.74,  2682.30000,   766.10000
    817.19,  2661.30000,   769.20000
    817.65,  2678.00000,   770.60000
    818.11,  2702.50000,   761.80000
    818.56,  2712.00000,   756.60000
    819.02,  2693.50000,   765.10000
    819.48,  2697.90000,   755.90000
    819.93,  2659.90000,   748.30000
    820.39,  2677.60000,   751.20000
    820.84,  2706.30000,   760.10000
    821.30,  2726.50000,   764.90000
    821.76,  2724.30000,   773.90000
    822.21,  2735.70000,   763.40000
    822.67,  2710.80000,   759.50000
    823.13,  2670.00000,   764.50000
    823.58,  2701.20000,   759.50000
    824.04,  2728.50000,   755.50000
    824.49,  2725.00000,   750.90000
    824.95,  2732.50000,   746.40000
    825.41,  2734.70000,   743.10000
    825.86,  2708.80000,   748.00000
    826.32,  2747.70000,   743.40000
    826.78,  2731.40000,   746.00000
    827.23,  2701.50000,   741.30000
    827.69,  2673.70000,   749.50000
    828.14,  2675.80000,   744.80000
    828.60,  2693.20000,   771.00000
    829.06,  2713.90000,   794.60000
    829.51,  2702.40000,   804.80000
    829.97,  2709.60000,   790.80000
    830.42,  2703.90000,   772.70000
    830.88,  2696.50000,   740.30000
    831.34,  2694.30000,   737.30000
    831.79,  2718.40000,   738.40000
    832.25,  2719.40000,   745.80000
    832.70,  2712.60000,   753.20000
    833.16,  2718.30000,   754.80000
    833.61,  2711.90000,   754.60000
    834.07,  2707.20000,   747.60000
    834.53,  2711.30000,   742.20000
    834.98,  2694.70000,   748.50000
    835.44,  2667.30000,   763.40000
    835.89,  2679.20000,   771.60000
    836.35,  2698.10000,   774.20000
    836.80,  2728.80000,   760.80000
    837.26,  2717.50000,   744.20000
    837.71,  2692.90000,   740.90000
    838.17,  2682.90000,   741.50000
    838.63,  2675.90000,   744.60000
    839.08,  2678.80000,   747.70000
    839.54,  2697.70000,   748.00000
    839.99,  2690.00000,   744.70000
    840.45,  2697.00000,   746.40000
    840.90,  2715.30000,   740.20000
    841.36,  2718.00000,   750.60000
    841.81,  2716.80000,   748.70000
    842.27,  2708.00000,   753.80000
    842.72,  2686.80000,   756.80000
    843.18,  2689.30000,   755.50000
    843.63,  2668.30000,   749.40000
    844.09,  2659.80000,   760.70000
    844.55,  2657.60000,   744.90000
    845.00,  2653.90000,   739.60000
    845.46,  2660.00000,   744.20000
    845.91,  2677.10000,   743.80000
    846.37,  2694.20000,   745.60000
    846.82,  2710.60000,   758.20000
    847.28,  2718.20000,   760.40000
    847.73,  2672.30000,   755.00000
    848.19,  2695.90000,   756.00000
    848.64,  2703.30000,   746.90000
    849.10,  2726.10000,   745.50000
    849.55,  2726.70000,   751.10000
    850.01,  2718.90000,   753.60000
    850.46,  2673.10000,   751.10000
    850.92,  2711.50000,   738.90000
    851.37,  2718.10000,   741.40000
    851.83,  2719.00000,   741.30000
    852.28,  2713.70000,   747.80000
    852.73,  2691.10000,   747.40000
    853.19,  2658.90000,   746.00000
    853.64,  2668.80000,   733.70000
    854.10,  2672.70000,   738.80000
    854.55,  2678.20000,   740.60000
    855.01,  2682.60000,   753.80000
    855.46,  2661.30000,   754.90000
    855.92,  2652.00000,   759.40000
    856.37,  2659.20000,   751.10000
    856.83,  2658.90000,   744.00000
    857.28,  2673.20000,   750.40000
    857.74,  2677.90000,   751.30000
    858.19,  2680.20000,   749.10000
    858.64,  2700.40000,   751.50000
    859.10,  2691.50000,   746.90000
    859.55,  2669.20000,   741.40000
    860.01,  2714.50000,   745.90000
    860.46,  2736.80000,   742.50000
    860.92,  2732.20000,   753.80000
    861.37,  2721.40000,   763.40000
    861.83,  2715.30000,   763.70000
    862.28,  2695.40000,   754.80000
    862.73,  2721.70000,   736.70000
    863.19,  2716.40000,   721.80000
    863.64,  2691.80000,   725.80000
    864.10,  2670.60000,   738.40000
    864.55,  2690.70000,   747.20000
    865.01,  2681.30000,   754.50000
    865.46,  2698.20000,   757.50000
    865.91,  2681.30000,   762.50000
    866.37,  2668.70000,   762.90000
    866.82,  2659.60000,   763.40000
    867.28,  2657.20000,   759.20000
    867.73,  2653.20000,   755.80000
    868.18,  2688.70000,   760.50000
    868.64,  2696.10000,   752.90000
    869.09,  2720.90000,   745.60000
    869.55,  2732.40000,   733.80000
    870.00,  2713.00000,   736.90000
    870.45,  2697.90000,   752.40000
    870.91,  2662.50000,   765.90000
    871.36,  2637.40000,   764.70000
    871.81,  2656.60000,   768.40000
    872.27,  2689.70000,   757.90000
    872.72,  2710.20000,   744.80000
    873.18,  2726.70000,   733.70000
    873.63,  2705.70000,   725.90000
    874.08,  2693.90000,   725.60000
    874.54,  2699.90000,   732.40000
    874.99,  2687.70000,   741.70000
    875.44,  2675.00000,   728.00000
    875.90,  2653.50000,   731.30000
    876.35,  2650.50000,   738.70000
    876.81,  2682.20000,   750.20000
    877.26,  2712.60000,   751.80000
    877.71,  2703.70000,   746.80000
    878.17,  2684.30000,   739.70000
    878.62,  2696.90000,   745.20000
    879.07,  2719.50000,   742.00000
    879.53,  2736.40000,   749.00000
    879.98,  2726.30000,   745.70000
    880.43,  2708.60000,   740.90000
    880.89,  2688.90000,   745.10000
    881.34,  2688.30000,   758.00000
    881.79,  2700.50000,   763.70000
    882.25,  2689.10000,   768.30000
    882.70,  2668.80000,   762.60000
    883.15,  2661.70000,   748.40000
    883.61,  2676.70000,   740.60000
    884.06,  2659.30000,   751.00000
    884.51,  2682.30000,   750.60000
    884.97,  2670.50000,   752.30000
    885.42,  2682.60000,   754.40000
    885.87,  2677.10000,   749.80000
    886.32,  2694.50000,   743.90000
    886.78,  2667.60000,   743.10000
    887.23,  2679.10000,   738.40000
    887.68,  2668.10000,   751.60000
    888.14,  2680.60000,   756.70000
    888.59,  2659.90000,   768.40000
    889.04,  2642.70000,   769.80000
    889.50,  2607.30000,   774.80000
    889.95,  2624.60000,   776.10000
    890.40,  2655.20000,   777.70000
    890.85,  2683.90000,   766.80000
    891.31,  2677.00000,   764.60000
    891.76,  2675.60000,   766.50000
    892.21,  2654.80000,   776.80000
    892.67,  2662.40000,   778.10000
    893.12,  2658.00000,   778.60000
    893.57,  2667.50000,   777.50000
    894.02,  2672.50000,   775.90000
    894.48,  2696.50000,   773.10000
    894.93,  2698.80000,   770.90000
    895.38,  2702.40000,   768.60000
    895.83,  2677.00000,   769.00000
    896.29,  2678.40000,   763.40000
    896.74,  2670.10000,   764.60000
    897.19,  2690.30000,   762.90000
    897.64,  2691.90000,   767.60000
    898.10,  2694.50000,   780.90000
    898.55,  2669.50000,   796.40000
    899.00,  2666.60000,   790.50000
    899.45,  2637.50000,   790.70000
    899.91,  2639.00000,   772.50000
    900.36,  2619.30000,   766.10000
    900.81,  2650.30000,   772.40000
    901.26,  2668.40000,   774.50000
    901.72,  2688.30000,   777.90000
    902.17,  2683.90000,   783.60000
    902.62,  2690.00000,   775.00000
    903.07,  2650.40000,   782.90000
    903.52,  2659.00000,   789.90000
    903.98,  2668.90000,   785.90000
    904.43,  2673.30000,   791.50000
    904.88,  2664.70000,   788.50000
    905.33,  2673.70000,   783.60000
    905.79,  2656.60000,   781.10000
    906.24,  2659.80000,   784.00000
    906.69,  2674.80000,   778.20000
    907.14,  2669.20000,   789.70000
    907.59,  2637.60000,   791.50000
    908.05,  2626.90000,   796.90000
    908.50,  2613.60000,   798.10000
    908.95,  2625.60000,   805.50000
    909.40,  2643.10000,   805.50000
    909.85,  2639.50000,   811.70000
    910.31,  2640.20000,   810.00000
    910.76,  2631.20000,   805.00000
    911.21,  2612.80000,   803.50000
    911.66,  2611.60000,   800.50000
    912.11,  2608.70000,   811.00000
    912.56,  2626.70000,   825.80000
    913.02,  2653.70000,   834.00000
    913.47,  2658.00000,   834.00000
    913.92,  2653.40000,   835.40000
    914.37,  2640.70000,   833.10000
    914.82,  2644.70000,   836.70000
    915.27,  2660.50000,   849.00000
    915.73,  2683.00000,   853.70000
    916.18,  2664.70000,   868.90000
    916.63,  2646.70000,   879.60000
    917.08,  2605.40000,   894.60000
    917.53,  2643.60000,   902.20000
    917.98,  2533.90000,   920.40000
    918.44,  2878.60000,   929.40000
    918.89,  3057.20000,   939.60000
    919.34,  3111.50000,   945.80000
    919.79,  3019.40000,   955.30000
    920.24,  2862.30000,   967.10000
    920.69,  2547.10000,   983.80000
    921.14,  2675.20000,  1009.20000
    921.59,  2667.20000,  1033.90000
    922.05,  2657.70000,  1062.70000
    922.50,  2650.90000,  1108.90000
    922.95,  2663.10000,  1175.90000
    923.40,  2681.40000,  1241.60000
    923.85,  2692.50000,  1326.70000
    924.30,  2703.80000,  1422.60000
    924.75,  2697.80000,  1533.40000
    925.20,  2681.50000,  1674.30000
    925.66,  2655.50000,  1854.20000
    926.11,  2644.70000,  2046.10000
    926.56,  2649.30000,  2257.30000
    927.01,  2663.50000,  2501.10000
    927.46,  2664.20000,  2765.50000
    927.91,  2636.90000,  3054.50000
    928.36,  2605.90000,  3368.00000
    928.81,  2606.30000,  3708.70000
    929.26,  2620.70000,  4044.60000
    929.71,  2652.90000,  4358.00000
    930.16,  2686.90000,  4630.50000
    930.62,  2671.00000,  4856.30000
    931.07,  2661.50000,  5067.90000
    931.52,  2657.30000,  5282.20000
    931.97,  2658.10000,  5489.80000
    932.42,  2661.60000,  5681.10000
    932.87,  2672.80000,  5843.90000
    933.32,  2652.50000,  5967.80000
    933.77,  2673.80000,  6075.80000
    934.22,  2676.80000,  6158.70000
    934.67,  2690.60000,  6263.10000
    935.12,  2684.00000,  6368.30000
    935.57,  2653.30000,  6476.10000
    936.02,  2615.70000,  6551.60000
    936.47,  2637.00000,  6575.60000
    936.93,  2618.30000,  6540.40000
    937.38,  2626.70000,  6521.10000
    937.83,  2646.20000,  6529.30000
    938.28,  2633.30000,  6620.70000
    938.73,  2628.40000,  6798.40000
    939.18,  2652.50000,  7008.50000
    939.63,  2654.10000,  7217.60000
    940.08,  2670.70000,  7406.00000
    940.53,  2693.10000,  7517.50000
    940.98,  2681.30000,  7654.50000
    941.43,  2656.30000,  7789.60000
    941.88,  2648.10000,  7885.40000
    942.33,  2652.10000,  7984.60000
    942.78,  2652.60000,  8038.70000
    943.23,  2668.10000,  8052.40000
    943.68,  2671.40000,  8101.60000
    944.13,  2679.30000,  8118.30000
    944.58,  2692.50000,  8126.40000
    945.03,  2691.70000,  8146.60000
    945.48,  2653.80000,  8196.40000
    945.93,  2645.80000,  8283.60000
    946.38,  2644.30000,  8368.80000
    946.83,  2671.10000,  8410.50000
    947.28,  2684.90000,  8397.70000
    947.73,  2685.50000,  8378.50000
    948.18,  2650.90000,  8404.70000
    948.63,  2637.70000,  8434.80000
    949.08,  2635.00000,  8482.50000
    949.53,  2632.70000,  8480.30000
    949.98,  2626.20000,  8379.70000
    950.43,  2635.60000,  8320.20000
    950.88,  2638.50000,  8233.40000
    951.33,  2646.20000,  8108.70000
    951.78,  2668.70000,  7970.80000
    952.23,  2670.80000,  7825.80000
    952.68,  2654.10000,  7714.40000
    953.13,  2655.90000,  7649.10000
    953.58,  2660.80000,  7603.10000
    954.03,  2653.30000,  7554.60000
    954.48,  2644.20000,  7506.70000
    954.93,  2642.10000,  7471.00000
    955.38,  2630.20000,  7431.40000
    955.83,  2643.00000,  7319.40000
    956.28,  2645.10000,  7182.70000
    956.73,  2656.20000,  6985.70000
    957.18,  2653.80000,  6780.90000
    957.62,  2647.60000,  6559.10000
    958.07,  2656.60000,  6335.00000
    958.52,  2650.40000,  6165.90000
    958.97,  2638.20000,  6057.00000
    959.42,  2634.10000,  5960.20000
    959.87,  2620.30000,  5870.70000
    960.32,  2623.30000,  5742.70000
    960.77,  2650.40000,  5589.40000
    961.22,  2692.90000,  5419.30000
    961.67,  2716.70000,  5259.60000
    962.12,  2694.20000,  5074.80000
    962.57,  2663.30000,  4919.40000
    963.02,  2662.90000,  4757.90000
    963.47,  2654.80000,  4625.70000
    963.92,  2672.20000,  4519.30000
    964.36,  2672.10000,  4463.00000
    964.81,  2656.70000,  4413.00000
    965.26,  2655.60000,  4376.20000
    965.71,  2664.40000,  4317.20000
    966.16,  2665.70000,  4229.10000
    966.61,  2651.20000,  4135.30000
    967.06,  2640.00000,  4020.50000
    967.51,  2650.40000,  3886.20000
    967.96,  2662.50000,  3750.50000
    968.41,  2676.70000,  3615.60000
    968.85,  2676.60000,  3492.60000
    969.30,  2664.40000,  3368.50000
    969.75,  2667.10000,  3234.10000
    970.20,  2665.50000,  3086.70000
    970.65,  2669.40000,  2967.50000
    971.10,  2663.90000,  2844.00000
    971.55,  2659.90000,  2738.20000
    972.00,  2641.80000,  2632.80000
    972.44,  2631.40000,  2533.70000
    972.89,  2643.80000,  2442.70000
    973.34,  2664.80000,  2375.60000
    973.79,  2667.70000,  2328.30000
    974.24,  2682.50000,  2302.00000
    974.69,  2660.90000,  2290.20000
    975.14,  2632.70000,  2284.70000
    975.59,  2626.70000,  2306.60000
    976.03,  2615.50000,  2318.00000
    976.48,  2609.30000,  2331.00000
    976.93,  2612.90000,  2334.00000
    977.38,  2616.30000,  2322.70000
    977.83,  2612.50000,  2296.90000
    978.28,  2621.20000,  2281.80000
    978.72,  2632.80000,  2267.00000
    979.17,  2651.80000,  2267.80000
    979.62,  2665.20000,  2298.40000
    980.07,  2673.00000,  2343.60000
    980.52,  2659.30000,  2384.70000
    980.97,  2631.40000,  2402.40000
    981.41,  2585.50000,  2394.80000
    981.86,  2572.90000,  2367.50000
    982.31,  2598.40000,  2322.30000
    982.76,  2621.20000,  2265.30000
    983.21,  2655.20000,  2207.10000
    983.66,  2657.40000,  2127.20000
    984.10,  2625.70000,  2044.80000
    984.55,  2613.20000,  1958.70000
    985.00,  2606.50000,  1867.60000
    985.45,  2584.00000,  1800.30000
    985.90,  2597.30000,  1736.50000
    986.34,  2611.20000,  1682.70000
    986.79,  2601.40000,  1630.00000
    987.24,  2602.90000,  1574.70000
    987.69,  2588.30000,  1520.60000
    988.14,  2586.60000,  1464.20000
    988.58,  2609.60000,  1402.00000
    989.03,  2629.10000,  1363.20000
    989.48,  2633.20000,  1324.20000
    989.93,  2626.80000,  1298.30000
    990.38,  2599.60000,  1286.40000
    990.82,  2604.10000,  1255.00000
    991.27,  2614.40000,  1231.80000
    991.72,  2641.90000,  1202.10000
    992.17,  2632.10000,  1172.40000
    992.61,  2642.90000,  1138.30000
    993.06,  2617.10000,  1125.20000
    993.51,  2637.40000,  1105.40000
    993.96,  2626.80000,  1101.60000
    994.41,  2621.10000,  1077.80000
    994.85,  2605.70000,  1049.10000
    995.30,  2630.40000,  1014.30000
    995.75,  2625.40000,  1003.40000
    996.20,  2658.60000,   998.80000
    996.64,  2638.30000,   983.20000
    997.09,  2602.90000,   967.10000
    997.54,  2595.60000,   943.50000
    997.99,  2588.30000,   929.80000
    998.43,  2593.30000,   919.70000
    998.88,  2594.30000,   922.50000
    999.33,  2603.60000,   910.50000
    999.77,  2623.30000,   909.80000
   1000.22,  2637.30000,   902.80000
   1000.67,  2650.40000,   892.70000
   1001.12,  2662.00000,   880.60000
   1001.56,  2624.90000,   881.60000
   1002.01,  2606.70000,   886.00000
   1002.46,  2617.30000,   888.50000
   1002.91,  2590.90000,   896.60000
   1003.35,  2610.50000,   885.60000
   1003.80,  2600.60000,   887.80000
   1004.25,  2601.60000,   873.10000
   1004.69,  2601.30000,   863.70000
   1005.14,  2598.70000,   852.60000
   1005.59,  2596.20000,   852.00000
   1006.04,  2632.50000,   846.40000
   1006.48,  2642.10000,   862.70000
   1006.93,  2670.50000,   862.00000
   1007.38,  2658.30000,   863.70000
   1007.82,  2614.30000,   860.50000
   1008.27,  2598.00000,   849.30000
   1008.72,  2586.20000,   840.60000
   1009.16,  2590.40000,   838.40000
   1009.61,  2599.80000,   844.70000
   1010.06,  2600.00000,   845.10000
   1010.50,  2620.50000,   851.70000
   1010.95,  2645.40000,   850.90000
   1011.40,  2649.60000,   850.70000
   1011.85,  2635.00000,   857.00000
   1012.29,  2620.90000,   866.10000
   1012.74,  2591.50000,   861.40000
   1013.19,  2589.10000,   863.10000
   1013.63,  2625.50000,   856.10000
   1014.08,  2654.00000,   854.00000
   1014.53,  2652.00000,   865.60000
   1014.97,  2637.30000,   869.20000
   1015.42,  2612.20000,   861.30000
   1015.86,  2581.10000,   854.40000
   1016.31,  2601.70000,   845.40000
   1016.76,  2622.80000,   853.40000
   1017.20,  2611.00000,   865.00000
   1017.65,  2585.50000,   867.60000
   1018.10,  2584.70000,   868.30000
   1018.54,  2569.00000,   859.40000
   1018.99,  2593.60000,   850.10000
   1019.44,  2598.60000,   857.20000
   1019.88,  2598.00000,   852.30000
   1020.33,  2589.00000,   856.00000
   1020.78,  2603.70000,   856.20000
   1021.22,  2610.80000,   857.40000
   1021.67,  2617.40000,   851.30000
   1022.11,  2598.50000,   861.40000
   1022.56,  2594.90000,   863.90000
   1023.01,  2577.90000,   877.20000
   1023.45,  2571.80000,   871.60000
   1023.90,  2584.30000,   858.60000
   1024.34,  2575.90000,   845.20000
   1024.79,  2573.20000,   845.10000
   1025.24,  2595.20000,   844.70000
   1025.68,  2589.20000,   850.60000
   1026.13,  2589.60000,   851.10000
   1026.58,  2604.30000,   839.00000
   1027.02,  2617.60000,   836.50000
   1027.47,  2621.60000,   836.10000
   1027.91,  2625.30000,   841.20000
   1028.36,  2597.80000,   843.90000
   1028.80,  2582.40000,   849.90000
   1029.25,  2564.20000,   848.00000
   1029.70,  2569.30000,   851.50000
   1030.14,  2572.20000,   854.90000
   1030.59,  2570.10000,   863.30000
   1031.03,  2572.50000,   858.00000
   1031.48,  2583.80000,   853.30000
   1031.93,  2606.80000,   849.00000
   1032.37,  2632.30000,   849.80000
   1032.82,  2633.90000,   855.80000
   1033.26,  2639.80000,   859.70000
   1033.71,  2617.10000,   856.40000
   1034.15,  2603.10000,   857.50000
   1034.60,  2595.80000,   857.50000
   1035.05,  2607.20000,   854.10000
   1035.49,  2592.90000,   853.60000
   1035.94,  2595.00000,   855.50000
   1036.38,  2560.20000,   866.00000
   1036.83,  2541.80000,   869.70000
   1037.27,  2530.30000,   866.60000
   1037.72,  2529.70000,   869.60000
   1038.16,  2636.90000,   858.80000
   1038.61,  2709.30000,   869.40000
   1039.05,  2726.10000,   858.80000
   1039.50,  2717.40000,   852.00000
   1039.95,  2662.00000,   844.60000
   1040.39,  2584.20000,   854.30000
   1040.84,  2597.10000,   854.30000
   1041.28,  2589.60000,   868.00000
   1041.73,  2588.90000,   853.60000
   1042.17,  2592.20000,   857.40000
   1042.62,  2590.20000,   858.00000
   1043.06,  2596.00000,   875.50000
   1043.51,  2575.40000,   878.20000
   1043.95,  2585.60000,   881.10000
   1044.40,  2592.60000,   873.80000
   1044.84,  2578.40000,   871.30000
   1045.29,  2569.90000,   868.40000
   1045.73,  2571.50000,   875.90000
   1046.18,  2554.50000,   871.00000
   1046.62,  2558.40000,   869.10000
   1047.07,  2560.60000,   865.50000
   1047.51,  2544.90000,   865.80000
   1047.96,  2575.90000,   860.00000
   1048.40,  2616.10000,   863.90000
   1048.85,  2624.90000,   873.70000
   1049.29,  2615.40000,   875.60000
   1049.74,  2572.20000,   881.70000
   1050.18,  2532.20000,   882.00000
   1050.63,  2539.10000,   868.50000
   1051.07,  2548.90000,   876.90000
   1051.52,  2563.60000,   874.40000
   1051.96,  2561.40000,   867.00000
   1052.41,  2543.00000,   863.20000
   1052.85,  2542.70000,   865.20000
   1053.30,  2540.00000,   863.80000
   1053.74,  2533.70000,   890.60000
   1054.18,  2538.10000,   900.30000
   1054.63,  2524.30000,   897.70000
   1055.07,  2513.20000,   893.20000
   1055.52,  2516.50000,   888.20000
   1055.96,  2515.90000,   879.20000
   1056.41,  2516.50000,   880.50000
   1056.85,  2512.00000,   884.50000
   1057.30,  2518.70000,   872.30000
   1057.74,  2514.20000,   874.20000
   1058.18,  2512.40000,   875.10000
   1058.63,  2482.20000,   883.30000
   1059.07,  2482.20000,   886.30000
   1059.52,  2487.40000,   896.90000
   1059.96,  2489.60000,   901.30000
   1060.41,  2492.50000,   900.50000
   1060.85,  2503.20000,   890.50000
   1061.30,  2489.20000,   891.00000
   1061.74,  2483.50000,   881.80000
   1062.18,  2474.70000,   895.90000
   1062.63,  2444.50000,   908.80000
   1063.07,  2447.50000,   910.30000
   1063.52,  2452.60000,   914.50000
   1063.96,  2471.90000,   911.70000
   1064.40,  2493.20000,   885.30000
   1064.85,  2514.40000,   864.10000
   1065.29,  2501.40000,   854.60000
   1065.74,  2494.20000,   850.00000
   1066.18,  2458.90000,   864.70000
