2D Measure spectrum data V5.74

<< MEASURE 1 >>
Data count = 2048
Exposure time = 30000 msec
Average = 10
Inspected time = 2020/10/19 17:15

Wave-dcm-1,Dark spec.  ,Spectrum
    108.17,  2241.20000,  2061.00000
    108.66,  2247.90000,  2048.00000
    109.15,  2261.50000,  2026.90000
    109.65,  2290.60000,  2002.00000
    110.14,  2297.80000,  1993.70000
    110.63,  2303.20000,  1979.80000
    111.13,  2320.10000,  1953.80000
    111.62,  2307.30000,  1938.20000
    112.11,  2326.60000,  1915.90000
    112.60,  2347.40000,  1913.40000
    113.10,  2337.10000,  1912.40000
    113.59,  2352.10000,  1923.40000
    114.08,  2365.90000,  1929.30000
    114.58,  2355.80000,  1925.70000
    115.07,  2402.40000,  1911.10000
    115.56,  2417.40000,  1901.20000
    116.06,  2407.50000,  1887.20000
    116.55,  2405.70000,  1887.40000
    117.04,  2388.30000,  1900.90000
    117.53,  2366.50000,  1901.80000
    118.03,  2401.90000,  1900.60000
    118.52,  2416.50000,  1907.40000
    119.01,  2413.20000,  1922.10000
    119.51,  2504.30000,  1942.40000
    120.00,  2587.50000,  1986.70000
    120.49,  2618.30000,  2018.10000
    120.98,  2611.60000,  2060.00000
    121.48,  2529.00000,  2105.30000
    121.97,  2433.70000,  2150.80000
    122.46,  2427.10000,  2191.50000
    122.95,  2453.70000,  2247.30000
    123.45,  2491.50000,  2296.40000
    123.94,  2492.50000,  2362.40000
    124.43,  2510.60000,  2419.90000
    124.92,  2544.50000,  2474.00000
    125.42,  2539.70000,  2510.30000
    125.91,  2556.90000,  2561.70000
    126.40,  2556.20000,  2587.60000
    126.89,  2523.60000,  2642.00000
    127.39,  2513.20000,  2686.80000
    127.88,  2507.10000,  2733.20000
    128.37,  2510.70000,  2761.30000
    128.86,  2530.90000,  2813.50000
    129.35,  2527.30000,  2850.30000
    129.85,  2531.60000,  2908.40000
    130.34,  2521.60000,  2958.20000
    130.83,  2524.10000,  3004.10000
    131.32,  2539.40000,  3029.60000
    131.81,  2544.20000,  3058.20000
    132.31,  2540.40000,  3070.50000
    132.80,  2540.00000,  3077.60000
    133.29,  2520.20000,  3091.20000
    133.78,  2526.70000,  3109.80000
    134.27,  2543.00000,  3121.40000
    134.77,  2556.80000,  3144.40000
    135.26,  2577.50000,  3173.40000
    135.75,  2571.70000,  3222.10000
    136.24,  2585.00000,  3282.10000
    136.73,  2570.40000,  3309.30000
    137.23,  2581.20000,  3325.30000
    137.72,  2579.20000,  3336.10000
    138.21,  2577.80000,  3340.30000
    138.70,  2569.60000,  3364.10000
    139.19,  2600.50000,  3398.70000
    139.68,  2586.70000,  3412.10000
    140.18,  2588.30000,  3450.50000
    140.67,  2598.10000,  3478.30000
    141.16,  2606.60000,  3503.00000
    141.65,  2601.20000,  3536.60000
    142.14,  2598.00000,  3569.70000
    142.63,  2618.20000,  3599.00000
    143.13,  2619.50000,  3631.70000
    143.62,  2652.30000,  3650.10000
    144.11,  2654.30000,  3677.60000
    144.60,  2616.00000,  3709.60000
    145.09,  2598.50000,  3733.60000
    145.58,  2652.10000,  3756.20000
    146.07,  2665.90000,  3783.00000
    146.56,  2678.30000,  3818.10000
    147.06,  2666.30000,  3878.80000
    147.55,  2636.30000,  3933.60000
    148.04,  2594.80000,  3971.20000
    148.53,  2626.50000,  3992.80000
    149.02,  2603.20000,  4012.50000
    149.51,  2680.60000,  4035.70000
    150.00,  2737.10000,  4083.70000
    150.49,  2759.60000,  4132.10000
    150.99,  2762.20000,  4163.30000
    151.48,  2743.60000,  4195.40000
    151.97,  2659.30000,  4222.50000
    152.46,  2668.80000,  4241.30000
    152.95,  2651.20000,  4254.00000
    153.44,  2649.60000,  4260.80000
    153.93,  2674.70000,  4248.10000
    154.42,  2689.90000,  4247.30000
    154.91,  2660.40000,  4226.70000
    155.40,  2643.90000,  4202.90000
    155.89,  2630.40000,  4176.50000
    156.39,  2648.60000,  4154.70000
    156.88,  2628.70000,  4162.60000
    157.37,  2636.30000,  4192.30000
    157.86,  2635.20000,  4230.70000
    158.35,  2642.40000,  4281.40000
    158.84,  2663.50000,  4309.60000
    159.33,  2707.50000,  4306.40000
    159.82,  2712.40000,  4291.20000
    160.31,  2728.30000,  4257.20000
    160.80,  2763.60000,  4238.40000
    161.29,  2719.60000,  4210.80000
    161.78,  2689.80000,  4163.50000
    162.27,  2656.60000,  4114.60000
    162.76,  2646.50000,  4080.80000
    163.25,  2659.40000,  4045.90000
    163.74,  2693.50000,  4044.60000
    164.23,  2696.80000,  4040.70000
    164.72,  2722.40000,  4044.00000
    165.21,  2695.90000,  4032.80000
    165.70,  2680.40000,  4016.60000
    166.20,  2713.70000,  3991.30000
    166.69,  2735.70000,  3963.70000
    167.18,  2750.40000,  3922.60000
    167.67,  2745.80000,  3891.80000
    168.16,  2717.90000,  3843.30000
    168.65,  2671.20000,  3796.80000
    169.14,  2698.10000,  3767.60000
    169.63,  2704.30000,  3741.40000
    170.12,  2698.90000,  3707.40000
    170.61,  2689.00000,  3675.50000
    171.10,  2746.40000,  3629.40000
    171.59,  2744.30000,  3580.20000
    172.08,  2753.80000,  3539.80000
    172.57,  2746.30000,  3520.00000
    173.06,  2737.10000,  3493.20000
    173.55,  2720.30000,  3472.00000
    174.04,  2707.60000,  3455.70000
    174.53,  2705.00000,  3434.00000
    175.02,  2696.80000,  3432.90000
    175.50,  2720.90000,  3438.40000
    175.99,  2746.60000,  3425.50000
    176.48,  2770.40000,  3400.80000
    176.97,  2747.10000,  3383.50000
    177.46,  2758.20000,  3351.30000
    177.95,  2730.20000,  3339.20000
    178.44,  2716.20000,  3340.70000
    178.93,  2692.80000,  3331.60000
    179.42,  2712.90000,  3311.60000
    179.91,  2727.70000,  3298.90000
    180.40,  2744.40000,  3294.30000
    180.89,  2754.20000,  3322.60000
    181.38,  2741.10000,  3372.40000
    181.87,  2731.30000,  3407.10000
    182.36,  2726.70000,  3418.60000
    182.85,  2696.30000,  3407.10000
    183.34,  2715.10000,  3382.40000
    183.83,  2729.50000,  3364.10000
    184.32,  2730.40000,  3345.30000
    184.81,  2775.20000,  3333.50000
    185.29,  2765.70000,  3312.90000
    185.78,  2730.90000,  3293.50000
    186.27,  2739.20000,  3271.40000
    186.76,  2730.60000,  3245.90000
    187.25,  2705.10000,  3226.90000
    187.74,  2777.20000,  3246.00000
    188.23,  2802.70000,  3263.60000
    188.72,  2821.60000,  3303.20000
    189.21,  2806.50000,  3341.90000
    189.70,  2770.10000,  3364.80000
    190.19,  2735.70000,  3376.30000
    190.67,  2726.80000,  3396.30000
    191.16,  2730.90000,  3405.90000
    191.65,  2736.10000,  3422.80000
    192.14,  2724.60000,  3421.60000
    192.63,  2746.10000,  3433.10000
    193.12,  2770.30000,  3419.40000
    193.61,  2752.70000,  3410.20000
    194.10,  2769.40000,  3396.90000
    194.59,  2759.60000,  3377.50000
    195.07,  2747.20000,  3356.70000
    195.56,  2755.80000,  3353.80000
    196.05,  2741.90000,  3319.60000
    196.54,  2727.60000,  3296.90000
    197.03,  2750.90000,  3273.00000
    197.52,  2799.10000,  3240.80000
    198.01,  2804.80000,  3225.40000
    198.49,  2804.60000,  3213.50000
    198.98,  2795.20000,  3189.10000
    199.47,  2748.70000,  3170.80000
    199.96,  2732.80000,  3146.70000
    200.45,  2749.50000,  3116.20000
    200.94,  2727.30000,  3101.50000
    201.43,  2733.70000,  3077.60000
    201.91,  2732.80000,  3055.30000
    202.40,  2732.40000,  3022.90000
    202.89,  2738.70000,  2998.90000
    203.38,  2759.70000,  2987.70000
    203.87,  2758.20000,  2993.20000
    204.36,  2744.90000,  2985.70000
    204.84,  2737.90000,  2986.90000
    205.33,  2758.70000,  2974.00000
    205.82,  2770.30000,  2975.90000
    206.31,  2766.60000,  2983.20000
    206.80,  2766.50000,  2990.40000
    207.28,  2772.60000,  2972.60000
    207.77,  2782.00000,  2974.00000
    208.26,  2794.20000,  2984.10000
    208.75,  2789.60000,  2997.50000
    209.24,  2771.00000,  3000.50000
    209.72,  2783.80000,  3006.40000
    210.21,  2800.30000,  2990.50000
    210.70,  2779.00000,  3001.00000
    211.19,  2790.80000,  3025.10000
    211.68,  2797.70000,  3040.30000
    212.16,  2810.80000,  3039.40000
    212.65,  2821.90000,  3037.00000
    213.14,  2807.80000,  3019.30000
    213.63,  2787.40000,  3017.40000
    214.12,  2761.70000,  3023.80000
    214.60,  2774.90000,  3024.30000
    215.09,  2791.90000,  3047.10000
    215.58,  2793.20000,  3066.80000
    216.07,  2787.60000,  3076.60000
    216.55,  2797.10000,  3088.00000
    217.04,  2732.40000,  3101.80000
    217.53,  2725.10000,  3110.90000
    218.02,  2722.70000,  3127.90000
    218.50,  2726.40000,  3151.80000
    218.99,  2749.70000,  3165.60000
    219.48,  2784.20000,  3178.90000
    219.97,  2753.30000,  3188.20000
    220.45,  2759.10000,  3196.00000
    220.94,  2755.80000,  3188.70000
    221.43,  2762.20000,  3201.30000
    221.92,  2785.90000,  3197.90000
    222.40,  2787.70000,  3196.90000
    222.89,  2782.60000,  3184.40000
    223.38,  2805.30000,  3173.20000
    223.86,  2825.50000,  3164.90000
    224.35,  2845.80000,  3170.20000
    224.84,  2847.30000,  3157.70000
    225.33,  2835.90000,  3141.00000
    225.81,  2804.50000,  3121.60000
    226.30,  2785.50000,  3099.70000
    226.79,  2773.80000,  3087.70000
    227.27,  2764.50000,  3071.70000
    227.76,  2762.50000,  3054.50000
    228.25,  2797.30000,  3017.20000
    228.74,  2813.40000,  2981.70000
    229.22,  2831.90000,  2937.40000
    229.71,  2821.00000,  2896.10000
    230.20,  2805.00000,  2856.20000
    230.68,  2795.90000,  2822.30000
    231.17,  2781.40000,  2793.40000
    231.66,  2759.80000,  2755.10000
    232.14,  2750.00000,  2722.50000
    232.63,  2742.00000,  2687.10000
    233.12,  2763.40000,  2661.90000
    233.60,  2788.30000,  2631.80000
    234.09,  2762.70000,  2619.40000
    234.58,  2747.00000,  2602.90000
    235.06,  2745.30000,  2594.90000
    235.55,  2747.20000,  2569.50000
    236.04,  2740.80000,  2553.60000
    236.52,  2762.80000,  2517.50000
    237.01,  2745.20000,  2493.20000
    237.50,  2781.20000,  2474.10000
    237.98,  2779.90000,  2463.50000
    238.47,  2837.60000,  2447.70000
    238.96,  2844.80000,  2431.90000
    239.44,  2835.10000,  2425.10000
    239.93,  2829.30000,  2418.80000
    240.41,  2787.80000,  2408.50000
    240.90,  2718.20000,  2406.10000
    241.39,  2741.10000,  2392.90000
    241.87,  2783.40000,  2367.20000
    242.36,  2797.10000,  2360.20000
    242.85,  2838.50000,  2347.80000
    243.33,  2825.30000,  2339.00000
    243.82,  2795.50000,  2345.90000
    244.30,  2769.40000,  2344.60000
    244.79,  2777.50000,  2340.80000
    245.28,  2769.30000,  2335.70000
    245.76,  2769.40000,  2325.10000
    246.25,  2760.00000,  2303.00000
    246.74,  2777.00000,  2293.70000
    247.22,  2801.10000,  2270.60000
    247.71,  2792.90000,  2265.80000
    248.19,  2786.00000,  2268.80000
    248.68,  2783.50000,  2272.40000
    249.16,  2751.40000,  2269.80000
    249.65,  2782.20000,  2265.20000
    250.14,  2799.40000,  2252.20000
    250.62,  2770.80000,  2257.50000
    251.11,  2744.20000,  2265.60000
    251.59,  2728.00000,  2258.90000
    252.08,  2722.70000,  2242.00000
    252.57,  2744.60000,  2240.10000
    253.05,  2756.00000,  2233.30000
    253.54,  2790.70000,  2243.80000
    254.02,  2811.20000,  2250.90000
    254.51,  2812.10000,  2244.10000
    254.99,  2818.90000,  2217.20000
    255.48,  2785.20000,  2220.70000
    255.96,  2755.30000,  2213.60000
    256.45,  2780.70000,  2220.80000
    256.94,  2785.40000,  2221.10000
    257.42,  2778.20000,  2222.40000
    257.91,  2792.30000,  2200.30000
    258.39,  2787.40000,  2196.50000
    258.88,  2772.80000,  2193.20000
    259.36,  2790.10000,  2196.50000
    259.85,  2787.90000,  2198.10000
    260.33,  2800.30000,  2205.70000
    260.82,  2819.00000,  2208.20000
    261.30,  2823.60000,  2219.50000
    261.79,  2796.00000,  2219.50000
    262.27,  2774.30000,  2211.10000
    262.76,  2761.60000,  2206.30000
    263.24,  2765.10000,  2203.30000
    263.73,  2792.30000,  2204.50000
    264.22,  2788.80000,  2217.40000
    264.70,  2852.30000,  2223.00000
    265.19,  2874.20000,  2230.40000
    265.67,  2871.10000,  2241.20000
    266.16,  2843.80000,  2245.50000
    266.64,  2825.60000,  2240.20000
    267.13,  2763.60000,  2247.60000
    267.61,  2776.20000,  2240.30000
    268.10,  2789.60000,  2242.70000
    268.58,  2784.20000,  2247.70000
    269.06,  2784.10000,  2249.40000
    269.55,  2805.40000,  2251.00000
    270.03,  2813.40000,  2266.40000
    270.52,  2815.60000,  2268.40000
    271.00,  2826.60000,  2265.60000
    271.49,  2819.10000,  2267.10000
    271.97,  2816.10000,  2268.30000
    272.46,  2820.50000,  2276.90000
    272.94,  2823.40000,  2289.20000
    273.43,  2815.10000,  2301.10000
    273.91,  2792.00000,  2298.50000
    274.40,  2779.70000,  2294.80000
    274.88,  2765.90000,  2294.60000
    275.37,  2766.20000,  2300.20000
    275.85,  2769.70000,  2301.80000
    276.33,  2773.00000,  2317.90000
    276.82,  2783.50000,  2334.00000
    277.30,  2793.40000,  2336.70000
    277.79,  2784.40000,  2350.90000
    278.27,  2792.70000,  2358.30000
    278.76,  2805.80000,  2351.00000
    279.24,  2812.30000,  2348.60000
    279.73,  2806.90000,  2347.30000
    280.21,  2799.90000,  2337.30000
    280.69,  2777.40000,  2348.40000
    281.18,  2779.80000,  2347.10000
    281.66,  2800.00000,  2339.40000
    282.15,  2838.60000,  2334.50000
    282.63,  2836.30000,  2326.40000
    283.11,  2829.00000,  2322.10000
    283.60,  2825.00000,  2326.40000
    284.08,  2831.40000,  2320.90000
    284.57,  2804.80000,  2314.70000
    285.05,  2803.30000,  2307.20000
    285.53,  2784.80000,  2295.10000
    286.02,  2758.80000,  2273.90000
    286.50,  2779.60000,  2263.90000
    286.99,  2800.10000,  2260.20000
    287.47,  2785.30000,  2263.40000
    287.95,  2779.20000,  2253.50000
    288.44,  2769.00000,  2256.00000
    288.92,  2766.30000,  2235.60000
    289.41,  2779.60000,  2230.10000
    289.89,  2806.90000,  2215.00000
    290.37,  2807.30000,  2206.50000
    290.86,  2832.10000,  2191.00000
    291.34,  2797.70000,  2181.10000
    291.82,  2789.30000,  2155.10000
    292.31,  2766.50000,  2146.60000
    292.79,  2784.80000,  2139.40000
    293.28,  2783.00000,  2137.10000
    293.76,  2795.40000,  2140.50000
    294.24,  2794.20000,  2131.20000
    294.73,  2814.20000,  2096.00000
    295.21,  2816.40000,  2073.40000
    295.69,  2824.00000,  2067.40000
    296.18,  2795.70000,  2069.60000
    296.66,  2751.60000,  2075.00000
    297.14,  2753.30000,  2061.70000
    297.63,  2765.30000,  2036.90000
    298.11,  2782.60000,  2017.40000
    298.59,  2817.10000,  1995.00000
    299.08,  2825.80000,  1975.80000
    299.56,  2823.30000,  1962.70000
    300.04,  2845.00000,  1943.70000
    300.53,  2847.00000,  1938.70000
    301.01,  2843.30000,  1934.50000
    301.49,  2838.10000,  1921.30000
    301.98,  2812.70000,  1896.80000
    302.46,  2786.50000,  1882.60000
    302.94,  2784.20000,  1867.00000
    303.42,  2776.00000,  1867.80000
    303.91,  2755.50000,  1872.70000
    304.39,  2742.40000,  1873.10000
    304.87,  2752.20000,  1853.60000
    305.36,  2771.90000,  1837.40000
    305.84,  2805.60000,  1812.60000
    306.32,  2839.00000,  1804.60000
    306.81,  2825.20000,  1802.50000
    307.29,  2806.70000,  1794.40000
    307.77,  2798.80000,  1775.60000
    308.25,  2798.10000,  1764.50000
    308.74,  2814.10000,  1751.40000
    309.22,  2811.40000,  1747.80000
    309.70,  2795.80000,  1746.50000
    310.18,  2781.00000,  1739.90000
    310.67,  2786.50000,  1729.20000
    311.15,  2795.10000,  1721.50000
    311.63,  2808.90000,  1715.70000
    312.12,  2818.50000,  1710.40000
    312.60,  2795.30000,  1699.10000
    313.08,  2772.70000,  1695.90000
    313.56,  2763.90000,  1689.00000
    314.05,  2755.50000,  1689.00000
    314.53,  2774.10000,  1684.20000
    315.01,  2835.30000,  1679.50000
    315.49,  2840.00000,  1660.80000
    315.98,  2840.60000,  1659.50000
    316.46,  2812.80000,  1651.40000
    316.94,  2768.90000,  1647.40000
    317.42,  2749.50000,  1642.40000
    317.90,  2757.80000,  1638.70000
    318.39,  2740.80000,  1631.90000
    318.87,  2787.00000,  1636.80000
    319.35,  2813.30000,  1628.00000
    319.83,  2823.20000,  1626.30000
    320.32,  2839.40000,  1623.00000
    320.80,  2852.50000,  1616.30000
    321.28,  2809.90000,  1600.00000
    321.76,  2843.10000,  1594.70000
    322.24,  2846.40000,  1581.00000
    322.73,  2852.70000,  1593.40000
    323.21,  2855.20000,  1598.60000
    323.69,  2856.10000,  1609.10000
    324.17,  2798.70000,  1607.10000
    324.65,  2771.30000,  1603.50000
    325.14,  2772.50000,  1596.20000
    325.62,  2781.50000,  1597.50000
    326.10,  2831.50000,  1598.70000
    326.58,  2855.80000,  1597.20000
    327.06,  2814.20000,  1602.80000
    327.55,  2831.00000,  1601.30000
    328.03,  2855.60000,  1596.30000
    328.51,  2860.90000,  1586.40000
    328.99,  2879.10000,  1585.30000
    329.47,  2874.80000,  1574.90000
    329.95,  2802.80000,  1574.90000
    330.44,  2806.00000,  1577.30000
    330.92,  2777.00000,  1569.30000
    331.40,  2755.30000,  1564.30000
    331.88,  2744.30000,  1564.70000
    332.36,  2764.80000,  1556.00000
    332.84,  2796.80000,  1543.80000
    333.33,  2839.50000,  1539.00000
    333.81,  2844.00000,  1530.30000
    334.29,  2845.00000,  1537.60000
    334.77,  2836.40000,  1548.70000
    335.25,  2821.90000,  1544.60000
    335.73,  2838.40000,  1533.80000
    336.21,  2831.00000,  1522.30000
    336.69,  2813.30000,  1512.40000
    337.18,  2801.70000,  1518.80000
    337.66,  2779.70000,  1528.90000
    338.14,  2758.10000,  1532.40000
    338.62,  2752.60000,  1534.80000
    339.10,  2779.50000,  1523.70000
    339.58,  2817.10000,  1521.50000
    340.06,  2832.30000,  1523.70000
    340.54,  2841.50000,  1524.00000
    341.03,  2831.00000,  1513.90000
    341.51,  2798.00000,  1508.00000
    341.99,  2798.90000,  1495.50000
    342.47,  2807.60000,  1486.50000
    342.95,  2806.90000,  1484.20000
    343.43,  2810.50000,  1492.00000
    343.91,  2812.90000,  1484.60000
    344.39,  2789.20000,  1488.30000
    344.87,  2767.70000,  1487.40000
    345.35,  2781.20000,  1478.40000
    345.84,  2791.70000,  1476.30000
    346.32,  2836.90000,  1476.40000
    346.80,  2852.00000,  1476.30000
    347.28,  2853.80000,  1472.60000
    347.76,  2824.90000,  1475.50000
    348.24,  2824.60000,  1470.30000
    348.72,  2844.00000,  1469.60000
    349.20,  2868.00000,  1467.90000
    349.68,  2838.80000,  1472.80000
    350.16,  2809.50000,  1469.70000
    350.64,  2767.90000,  1472.80000
    351.12,  2759.60000,  1474.40000
    351.60,  2815.80000,  1477.10000
    352.08,  2866.00000,  1479.10000
    352.56,  2882.30000,  1478.30000
    353.04,  2876.50000,  1477.60000
    353.53,  2851.60000,  1471.50000
    354.01,  2821.70000,  1468.40000
    354.49,  2836.50000,  1469.20000
    354.97,  2842.70000,  1467.30000
    355.45,  2842.80000,  1474.60000
    355.93,  2818.20000,  1483.60000
    356.41,  2822.90000,  1488.20000
    356.89,  2797.60000,  1483.40000
    357.37,  2806.50000,  1472.20000
    357.85,  2788.80000,  1452.60000
    358.33,  2786.60000,  1447.80000
    358.81,  2763.20000,  1459.60000
    359.29,  2775.90000,  1476.50000
    359.77,  2794.20000,  1481.90000
    360.25,  2816.00000,  1485.50000
    360.73,  2816.90000,  1475.10000
    361.21,  2803.40000,  1474.30000
    361.69,  2807.10000,  1475.60000
    362.17,  2808.00000,  1476.20000
    362.65,  2822.10000,  1477.30000
    363.13,  2838.60000,  1473.50000
    363.61,  2851.70000,  1464.90000
    364.09,  2821.80000,  1464.30000
    364.57,  2816.60000,  1460.60000
    365.05,  2805.80000,  1462.30000
    365.53,  2777.30000,  1471.50000
    366.01,  2798.80000,  1470.60000
    366.49,  2838.40000,  1474.50000
    366.97,  2808.20000,  1473.80000
    367.45,  2821.60000,  1475.40000
    367.93,  2846.80000,  1469.00000
    368.41,  2835.00000,  1458.50000
    368.89,  2839.00000,  1463.60000
    369.37,  2844.10000,  1476.80000
    369.85,  2792.70000,  1485.70000
    370.33,  2804.30000,  1494.40000
    370.80,  2821.30000,  1489.70000
    371.28,  2826.70000,  1472.20000
    371.76,  2804.60000,  1473.30000
    372.24,  2785.70000,  1486.20000
    372.72,  2784.60000,  1485.50000
    373.20,  2797.00000,  1490.70000
    373.68,  2825.10000,  1487.70000
    374.16,  2844.90000,  1488.20000
    374.64,  2827.20000,  1485.90000
    375.12,  2797.60000,  1502.10000
    375.60,  2828.50000,  1499.80000
    376.08,  2804.20000,  1498.30000
    376.56,  2801.00000,  1492.00000
    377.04,  2796.00000,  1492.70000
    377.52,  2801.90000,  1483.00000
    377.99,  2796.30000,  1486.10000
    378.47,  2830.40000,  1487.40000
    378.95,  2812.70000,  1500.70000
    379.43,  2824.70000,  1516.70000
    379.91,  2823.80000,  1519.00000
    380.39,  2864.00000,  1520.70000
    380.87,  2891.10000,  1509.50000
    381.35,  2883.60000,  1507.20000
    381.83,  2853.60000,  1516.60000
    382.31,  2816.80000,  1523.20000
    382.79,  2777.10000,  1517.00000
    383.26,  2788.50000,  1521.80000
    383.74,  2793.10000,  1512.80000
    384.22,  2789.60000,  1513.60000
    384.70,  2790.90000,  1517.20000
    385.18,  2771.20000,  1517.60000
    385.66,  2783.60000,  1518.20000
    386.14,  2801.70000,  1513.10000
    386.62,  2816.60000,  1507.70000
    387.09,  2836.10000,  1506.30000
    387.57,  2838.50000,  1510.40000
    388.05,  2826.10000,  1511.10000
    388.53,  2824.20000,  1516.50000
    389.01,  2833.00000,  1507.50000
    389.49,  2850.70000,  1508.40000
    389.97,  2855.70000,  1502.40000
    390.44,  2840.30000,  1505.40000
    390.92,  2816.40000,  1505.00000
    391.40,  2794.80000,  1512.10000
    391.88,  2794.10000,  1506.90000
    392.36,  2797.40000,  1511.50000
    392.84,  2808.00000,  1502.60000
    393.32,  2820.30000,  1495.30000
    393.79,  2811.10000,  1497.40000
    394.27,  2861.10000,  1495.20000
    394.75,  2864.40000,  1497.10000
    395.23,  2860.50000,  1504.10000
    395.71,  2847.10000,  1497.90000
    396.18,  2839.40000,  1500.00000
    396.66,  2841.50000,  1507.20000
    397.14,  2874.80000,  1516.20000
    397.62,  2844.30000,  1519.10000
    398.10,  2845.00000,  1511.90000
    398.58,  2830.40000,  1500.20000
    399.05,  2837.90000,  1488.10000
    399.53,  2850.20000,  1479.60000
    400.01,  2843.50000,  1485.80000
    400.49,  2818.70000,  1485.30000
    400.97,  2796.40000,  1485.80000
    401.44,  2764.30000,  1481.90000
    401.92,  2789.70000,  1474.20000
    402.40,  2795.30000,  1476.60000
    402.88,  2821.20000,  1473.70000
    403.36,  2840.30000,  1468.70000
    403.83,  2856.70000,  1457.50000
    404.31,  2819.90000,  1457.80000
    404.79,  2827.80000,  1463.40000
    405.27,  2805.40000,  1464.00000
    405.74,  2790.70000,  1467.20000
    406.22,  2810.80000,  1464.60000
    406.70,  2835.10000,  1452.30000
    407.18,  2813.70000,  1451.10000
    407.65,  2810.30000,  1440.20000
    408.13,  2783.70000,  1429.70000
    408.61,  2786.20000,  1440.60000
    409.09,  2801.60000,  1449.70000
    409.56,  2812.70000,  1433.20000
    410.04,  2824.60000,  1427.00000
    410.52,  2823.00000,  1415.40000
    411.00,  2800.30000,  1411.10000
    411.47,  2795.80000,  1410.40000
    411.95,  2781.60000,  1405.10000
    412.43,  2788.10000,  1387.20000
    412.91,  2792.50000,  1387.40000
    413.38,  2801.90000,  1394.80000
    413.86,  2811.70000,  1397.40000
    414.34,  2814.50000,  1389.60000
    414.82,  2816.20000,  1392.60000
    415.29,  2814.60000,  1387.40000
    415.77,  2826.40000,  1376.50000
    416.25,  2823.90000,  1373.00000
    416.72,  2822.90000,  1373.00000
    417.20,  2812.80000,  1375.20000
    417.68,  2786.50000,  1379.40000
    418.16,  2781.60000,  1373.20000
    418.63,  2805.20000,  1369.10000
    419.11,  2808.30000,  1362.20000
    419.59,  2814.20000,  1363.10000
    420.06,  2779.30000,  1374.40000
    420.54,  2753.20000,  1361.70000
    421.02,  2769.50000,  1363.10000
    421.50,  2794.50000,  1363.20000
    421.97,  2806.20000,  1360.30000
    422.45,  2799.40000,  1353.30000
    422.93,  2779.40000,  1350.70000
    423.40,  2767.70000,  1337.50000
    423.88,  2767.60000,  1340.60000
    424.36,  2783.60000,  1340.60000
    424.83,  2797.80000,  1344.80000
    425.31,  2812.30000,  1344.30000
    425.79,  2862.30000,  1332.50000
    426.26,  2908.70000,  1323.70000
    426.74,  2887.00000,  1318.90000
    427.22,  2867.10000,  1323.70000
    427.69,  2841.00000,  1337.10000
    428.17,  2806.80000,  1341.50000
    428.65,  2788.80000,  1339.10000
    429.12,  2830.80000,  1330.90000
    429.60,  2816.50000,  1323.60000
    430.08,  2823.70000,  1322.10000
    430.55,  2832.70000,  1322.70000
    431.03,  2831.70000,  1320.00000
    431.50,  2821.10000,  1328.40000
    431.98,  2824.10000,  1320.50000
    432.46,  2826.80000,  1318.70000
    432.93,  2807.90000,  1312.40000
    433.41,  2794.90000,  1304.40000
    433.89,  2786.40000,  1311.90000
    434.36,  2790.50000,  1317.90000
    434.84,  2778.20000,  1321.20000
    435.31,  2792.70000,  1331.20000
    435.79,  2795.20000,  1325.10000
    436.27,  2799.40000,  1311.00000
    436.74,  2805.20000,  1298.10000
    437.22,  2816.40000,  1285.50000
    437.70,  2813.70000,  1279.10000
    438.17,  2804.70000,  1277.40000
    438.65,  2794.80000,  1284.50000
    439.12,  2802.90000,  1287.20000
    439.60,  2802.10000,  1300.40000
    440.08,  2812.40000,  1310.20000
    440.55,  2799.50000,  1308.00000
    441.03,  2810.10000,  1299.70000
    441.50,  2801.70000,  1308.90000
    441.98,  2817.90000,  1307.00000
    442.45,  2806.80000,  1309.50000
    442.93,  2808.40000,  1305.20000
    443.41,  2795.10000,  1292.70000
    443.88,  2800.20000,  1294.80000
    444.36,  2787.20000,  1306.30000
    444.83,  2786.60000,  1312.40000
    445.31,  2781.30000,  1309.70000
    445.78,  2756.90000,  1307.70000
    446.26,  2768.60000,  1296.60000
    446.74,  2767.90000,  1301.30000
    447.21,  2791.50000,  1297.70000
    447.69,  2816.00000,  1295.10000
    448.16,  2840.30000,  1290.70000
    448.64,  2814.50000,  1293.90000
    449.11,  2800.40000,  1294.70000
    449.59,  2795.90000,  1302.90000
    450.06,  2792.10000,  1299.90000
    450.54,  2792.70000,  1295.30000
    451.02,  2825.10000,  1294.00000
    451.49,  2839.80000,  1291.80000
    451.97,  2835.10000,  1296.80000
    452.44,  2823.00000,  1309.30000
    452.92,  2802.70000,  1311.20000
    453.39,  2783.20000,  1302.00000
    453.87,  2793.20000,  1316.10000
    454.34,  2805.30000,  1328.90000
    454.82,  2810.00000,  1335.10000
    455.29,  2825.10000,  1328.60000
    455.77,  2833.90000,  1314.90000
    456.24,  2803.00000,  1294.30000
    456.72,  2778.60000,  1298.40000
    457.19,  2770.90000,  1304.70000
    457.67,  2782.40000,  1295.00000
    458.14,  2820.50000,  1279.70000
    458.62,  2829.10000,  1273.60000
    459.09,  2816.90000,  1273.70000
    459.57,  2792.90000,  1275.00000
    460.04,  2801.00000,  1284.40000
    460.52,  2798.80000,  1282.10000
    460.99,  2791.90000,  1282.50000
    461.47,  2783.30000,  1282.70000
    461.94,  2760.10000,  1282.90000
    462.42,  2750.30000,  1292.40000
    462.89,  2772.50000,  1302.70000
    463.37,  2790.10000,  1299.90000
    463.84,  2801.10000,  1300.00000
    464.32,  2811.20000,  1289.90000
    464.79,  2812.20000,  1277.50000
    465.26,  2817.30000,  1280.90000
    465.74,  2801.80000,  1280.20000
    466.21,  2814.30000,  1289.50000
    466.69,  2822.50000,  1292.30000
    467.16,  2824.50000,  1291.90000
    467.64,  2809.10000,  1288.90000
    468.11,  2790.30000,  1295.10000
    468.59,  2783.60000,  1293.30000
    469.06,  2802.30000,  1293.50000
    469.54,  2837.50000,  1293.70000
    470.01,  2843.50000,  1288.10000
    470.48,  2801.40000,  1282.20000
    470.96,  2807.90000,  1283.90000
    471.43,  2830.00000,  1291.00000
    471.91,  2854.30000,  1288.10000
    472.38,  2883.20000,  1308.50000
    472.86,  2856.30000,  1302.00000
    473.33,  2795.20000,  1299.40000
    473.80,  2787.50000,  1293.80000
    474.28,  2800.20000,  1283.40000
    474.75,  2815.80000,  1280.20000
    475.23,  2851.60000,  1285.00000
    475.70,  2851.60000,  1283.00000
    476.17,  2822.70000,  1291.50000
    476.65,  2815.80000,  1303.60000
    477.12,  2815.80000,  1295.50000
    477.60,  2778.80000,  1295.10000
    478.07,  2788.20000,  1289.50000
    478.54,  2800.20000,  1294.90000
    479.02,  2807.40000,  1291.80000
    479.49,  2834.10000,  1295.20000
    479.97,  2842.40000,  1279.80000
    480.44,  2835.00000,  1271.80000
    480.91,  2812.70000,  1270.20000
    481.39,  2804.90000,  1277.60000
    481.86,  2802.10000,  1282.90000
    482.34,  2783.40000,  1283.20000
    482.81,  2787.60000,  1285.50000
    483.28,  2818.10000,  1282.30000
    483.76,  2800.70000,  1288.10000
    484.23,  2827.00000,  1287.20000
    484.70,  2821.40000,  1293.30000
    485.18,  2817.90000,  1290.00000
    485.65,  2821.70000,  1290.70000
    486.12,  2828.50000,  1284.60000
    486.60,  2801.60000,  1288.00000
    487.07,  2806.80000,  1279.80000
    487.55,  2826.70000,  1276.20000
    488.02,  2843.30000,  1275.20000
    488.49,  2837.90000,  1279.60000
    488.97,  2845.20000,  1287.50000
    489.44,  2833.30000,  1288.70000
    489.91,  2796.60000,  1282.30000
    490.39,  2794.60000,  1275.30000
    490.86,  2754.00000,  1277.20000
    491.33,  2717.20000,  1287.10000
    491.81,  2767.00000,  1277.20000
    492.28,  2815.50000,  1267.90000
    492.75,  2815.30000,  1253.20000
    493.23,  2865.10000,  1252.10000
    493.70,  2873.60000,  1263.70000
    494.17,  2859.80000,  1273.20000
    494.64,  2853.80000,  1271.40000
    495.12,  2816.40000,  1275.40000
    495.59,  2812.20000,  1285.80000
    496.06,  2841.30000,  1288.80000
    496.54,  2859.30000,  1285.70000
    497.01,  2845.60000,  1271.20000
    497.48,  2830.50000,  1262.40000
    497.96,  2806.10000,  1256.10000
    498.43,  2835.40000,  1257.30000
    498.90,  2838.20000,  1252.60000
    499.37,  2863.50000,  1252.20000
    499.85,  2838.40000,  1252.70000
    500.32,  2837.10000,  1254.30000
    500.79,  2812.60000,  1266.90000
    501.27,  2812.90000,  1272.70000
    501.74,  2807.90000,  1276.80000
    502.21,  2809.80000,  1274.80000
    502.68,  2802.30000,  1268.30000
    503.16,  2794.60000,  1259.40000
    503.63,  2780.10000,  1259.30000
    504.10,  2786.60000,  1259.70000
    504.57,  2777.80000,  1264.00000
    505.05,  2794.10000,  1268.30000
    505.52,  2815.60000,  1275.00000
    505.99,  2813.90000,  1272.70000
    506.46,  2811.80000,  1263.30000
    506.94,  2804.90000,  1251.80000
    507.41,  2784.80000,  1246.30000
    507.88,  2786.60000,  1251.00000
    508.35,  2782.70000,  1249.50000
    508.83,  2775.20000,  1243.50000
    509.30,  2806.70000,  1239.30000
    509.77,  2819.50000,  1234.50000
    510.24,  2823.30000,  1227.20000
    510.72,  2803.60000,  1237.50000
    511.19,  2787.80000,  1246.30000
    511.66,  2780.30000,  1260.50000
    512.13,  2808.30000,  1255.20000
    512.60,  2792.40000,  1253.40000
    513.08,  2787.40000,  1242.00000
    513.55,  2781.10000,  1243.70000
    514.02,  2764.60000,  1248.40000
    514.49,  2763.30000,  1253.50000
    514.97,  2771.80000,  1256.10000
    515.44,  2779.80000,  1262.20000
    515.91,  2778.70000,  1264.60000
    516.38,  2787.20000,  1263.00000
    516.85,  2759.40000,  1251.80000
    517.33,  2749.40000,  1231.90000
    517.80,  2746.00000,  1234.30000
    518.27,  2770.70000,  1236.90000
    518.74,  2805.90000,  1247.20000
    519.21,  2827.00000,  1252.40000
    519.68,  2807.10000,  1252.80000
    520.16,  2784.80000,  1241.70000
    520.63,  2767.40000,  1237.20000
    521.10,  2760.80000,  1232.90000
    521.57,  2786.80000,  1236.40000
    522.04,  2801.70000,  1229.00000
    522.52,  2806.50000,  1226.00000
    522.99,  2790.60000,  1230.20000
    523.46,  2806.40000,  1235.10000
    523.93,  2804.10000,  1239.90000
    524.40,  2826.80000,  1243.60000
    524.87,  2819.00000,  1243.20000
    525.34,  2803.80000,  1238.50000
    525.82,  2789.60000,  1235.10000
    526.29,  2797.80000,  1241.30000
    526.76,  2795.60000,  1233.30000
    527.23,  2814.80000,  1232.20000
    527.70,  2799.10000,  1242.30000
    528.17,  2788.80000,  1245.50000
    528.64,  2787.70000,  1240.90000
    529.12,  2795.70000,  1242.70000
    529.59,  2796.60000,  1236.50000
    530.06,  2805.30000,  1237.10000
    530.53,  2841.90000,  1242.70000
    531.00,  2809.60000,  1250.50000
    531.47,  2764.80000,  1251.30000
    531.94,  2757.70000,  1247.90000
    532.41,  2742.10000,  1253.10000
    532.89,  2771.00000,  1240.90000
    533.36,  2836.80000,  1236.20000
    533.83,  2818.20000,  1244.00000
    534.30,  2799.80000,  1257.20000
    534.77,  2811.90000,  1265.50000
    535.24,  2804.40000,  1281.10000
    535.71,  2804.40000,  1264.80000
    536.18,  2817.10000,  1256.90000
    536.65,  2815.30000,  1242.30000
    537.13,  2789.00000,  1242.20000
    537.60,  2770.50000,  1250.20000
    538.07,  2770.40000,  1261.80000
    538.54,  2755.30000,  1271.20000
    539.01,  2775.90000,  1284.90000
    539.48,  2820.10000,  1279.10000
    539.95,  2831.40000,  1283.20000
    540.42,  2830.20000,  1290.00000
    540.89,  2820.50000,  1280.80000
    541.36,  2793.60000,  1279.40000
    541.83,  2791.40000,  1276.00000
    542.30,  2787.60000,  1286.00000
    542.77,  2789.40000,  1295.40000
    543.25,  2801.80000,  1306.00000
    543.72,  2802.90000,  1300.70000
    544.19,  2799.20000,  1300.70000
    544.66,  2783.40000,  1298.00000
    545.13,  2774.00000,  1300.60000
    545.60,  2759.10000,  1293.60000
    546.07,  2792.60000,  1288.40000
    546.54,  2811.90000,  1285.30000
    547.01,  2818.90000,  1298.20000
    547.48,  2815.30000,  1310.70000
    547.95,  2807.90000,  1306.40000
    548.42,  2784.40000,  1308.00000
    548.89,  2818.20000,  1303.90000
    549.36,  2810.50000,  1296.60000
    549.83,  2798.60000,  1296.70000
    550.30,  2839.10000,  1300.40000
    550.77,  2843.80000,  1298.50000
    551.24,  2843.10000,  1311.00000
    551.71,  2851.50000,  1320.10000
    552.18,  2818.00000,  1324.80000
    552.65,  2767.10000,  1326.20000
    553.12,  2790.50000,  1320.20000
    553.59,  2800.50000,  1321.10000
    554.06,  2805.60000,  1313.40000
    554.53,  2815.40000,  1316.70000
    555.00,  2811.60000,  1317.50000
    555.47,  2800.00000,  1326.50000
    555.94,  2792.90000,  1323.40000
    556.41,  2789.90000,  1330.10000
    556.88,  2768.70000,  1328.40000
    557.35,  2765.50000,  1326.10000
    557.82,  2756.30000,  1329.50000
    558.29,  2766.60000,  1344.10000
    558.76,  2800.40000,  1356.00000
    559.23,  2817.80000,  1363.80000
    559.70,  2819.10000,  1366.00000
    560.17,  2816.70000,  1346.70000
    560.64,  2809.50000,  1337.30000
    561.11,  2794.90000,  1333.50000
    561.58,  2815.80000,  1339.90000
    562.05,  2799.60000,  1346.00000
    562.52,  2806.00000,  1359.20000
    562.99,  2800.80000,  1357.30000
    563.46,  2816.10000,  1351.70000
    563.93,  2805.00000,  1348.30000
    564.40,  2810.20000,  1346.70000
    564.87,  2808.60000,  1344.50000
    565.34,  2826.00000,  1351.50000
    565.81,  2810.70000,  1348.70000
    566.28,  2814.30000,  1337.10000
    566.74,  2796.20000,  1334.00000
    567.21,  2791.60000,  1330.00000
    567.68,  2806.90000,  1326.80000
    568.15,  2799.00000,  1335.50000
    568.62,  2794.30000,  1336.20000
    569.09,  2794.80000,  1339.60000
    569.56,  2786.80000,  1346.60000
    570.03,  2788.20000,  1345.00000
    570.50,  2823.60000,  1341.30000
    570.97,  2814.00000,  1343.10000
    571.44,  2806.70000,  1345.90000
    571.91,  2807.30000,  1349.50000
    572.38,  2797.10000,  1349.60000
    572.84,  2775.60000,  1350.80000
    573.31,  2786.10000,  1353.90000
    573.78,  2785.10000,  1345.40000
    574.25,  2780.10000,  1348.70000
    574.72,  2800.20000,  1341.00000
    575.19,  2796.70000,  1340.10000
    575.66,  2790.80000,  1342.40000
    576.13,  2782.20000,  1357.00000
    576.60,  2790.50000,  1359.40000
    577.07,  2816.40000,  1366.50000
    577.53,  2842.60000,  1356.30000
    578.00,  2838.10000,  1350.80000
    578.47,  2835.40000,  1338.90000
    578.94,  2806.50000,  1330.10000
    579.41,  2775.80000,  1333.20000
    579.88,  2787.40000,  1349.30000
    580.35,  2788.10000,  1349.70000
    580.82,  2791.50000,  1356.10000
    581.28,  2815.10000,  1356.50000
    581.75,  2818.60000,  1342.80000
    582.22,  2817.10000,  1329.70000
    582.69,  2828.60000,  1324.20000
    583.16,  2821.90000,  1315.10000
    583.63,  2807.40000,  1331.00000
    584.10,  2830.30000,  1345.60000
    584.56,  2846.50000,  1347.50000
    585.03,  2849.20000,  1337.00000
    585.50,  2841.50000,  1327.80000
    585.97,  2812.60000,  1319.40000
    586.44,  2798.80000,  1334.30000
    586.91,  2808.80000,  1336.50000
    587.37,  2798.30000,  1340.00000
    587.84,  2786.90000,  1333.50000
    588.31,  2773.00000,  1336.50000
    588.78,  2751.20000,  1331.80000
    589.25,  2780.80000,  1345.80000
    589.72,  2780.10000,  1348.20000
    590.18,  2803.00000,  1351.20000
    590.65,  2827.70000,  1348.30000
    591.12,  2823.90000,  1342.30000
    591.59,  2822.50000,  1334.60000
    592.06,  2809.70000,  1334.20000
    592.52,  2770.50000,  1323.10000
    592.99,  2784.70000,  1314.20000
    593.46,  2776.70000,  1316.90000
    593.93,  2739.90000,  1331.90000
    594.40,  2761.40000,  1351.70000
    594.86,  2785.20000,  1355.30000
    595.33,  2798.90000,  1351.90000
    595.80,  2818.60000,  1341.10000
    596.27,  2823.00000,  1329.80000
    596.74,  2804.20000,  1332.50000
    597.20,  2794.10000,  1336.00000
    597.67,  2803.20000,  1339.40000
    598.14,  2780.00000,  1346.60000
    598.61,  2768.70000,  1349.10000
    599.07,  2775.20000,  1337.90000
    599.54,  2770.50000,  1327.10000
    600.01,  2759.60000,  1320.70000
    600.48,  2818.90000,  1320.70000
    600.95,  2844.30000,  1320.50000
    601.41,  2855.30000,  1322.80000
    601.88,  2845.00000,  1314.00000
    602.35,  2785.60000,  1309.80000
    602.82,  2733.70000,  1305.80000
    603.28,  2750.40000,  1300.70000
    603.75,  2744.80000,  1305.90000
    604.22,  2768.90000,  1310.70000
    604.69,  2782.10000,  1311.40000
    605.15,  2785.30000,  1318.90000
    605.62,  2779.80000,  1308.40000
    606.09,  2784.60000,  1305.00000
    606.56,  2768.20000,  1306.30000
    607.02,  2768.60000,  1302.60000
    607.49,  2762.70000,  1302.00000
    607.96,  2788.80000,  1302.50000
    608.42,  2790.00000,  1291.60000
    608.89,  2845.00000,  1290.30000
    609.36,  2862.10000,  1282.20000
    609.83,  2845.30000,  1277.20000
    610.29,  2810.10000,  1277.60000
    610.76,  2780.10000,  1283.10000
    611.23,  2765.50000,  1285.60000
    611.69,  2788.40000,  1286.30000
    612.16,  2788.80000,  1280.50000
    612.63,  2789.20000,  1282.20000
    613.10,  2777.50000,  1276.40000
    613.56,  2757.00000,  1281.20000
    614.03,  2766.60000,  1284.90000
    614.50,  2774.80000,  1278.40000
    614.96,  2783.00000,  1273.60000
    615.43,  2793.50000,  1262.60000
    615.90,  2808.50000,  1256.90000
    616.36,  2805.60000,  1253.70000
    616.83,  2792.90000,  1258.40000
    617.30,  2795.30000,  1246.60000
    617.76,  2770.80000,  1253.30000
    618.23,  2754.00000,  1250.60000
    618.70,  2748.50000,  1254.70000
    619.16,  2753.70000,  1256.60000
    619.63,  2753.60000,  1252.80000
    620.10,  2758.00000,  1239.20000
    620.56,  2754.70000,  1238.70000
    621.03,  2775.40000,  1233.70000
    621.50,  2789.60000,  1224.70000
    621.96,  2800.10000,  1223.20000
    622.43,  2806.70000,  1214.10000
    622.90,  2804.60000,  1221.80000
    623.36,  2811.50000,  1223.70000
    623.83,  2800.40000,  1241.90000
    624.30,  2791.20000,  1243.20000
    624.76,  2793.40000,  1241.70000
    625.23,  2803.30000,  1233.20000
    625.70,  2818.00000,  1224.50000
    626.16,  2830.60000,  1205.50000
    626.63,  2798.70000,  1209.00000
    627.09,  2794.10000,  1199.70000
    627.56,  2803.60000,  1205.00000
    628.03,  2794.40000,  1206.60000
    628.49,  2798.50000,  1202.80000
    628.96,  2782.80000,  1192.60000
    629.43,  2782.00000,  1191.30000
    629.89,  2786.10000,  1184.50000
    630.36,  2800.70000,  1189.50000
    630.82,  2793.50000,  1191.90000
    631.29,  2787.70000,  1197.20000
    631.76,  2765.20000,  1190.60000
    632.22,  2754.10000,  1180.00000
    632.69,  2754.20000,  1184.30000
    633.15,  2772.30000,  1194.20000
    633.62,  2798.00000,  1214.00000
    634.09,  2813.00000,  1216.90000
    634.55,  2816.90000,  1210.40000
    635.02,  2792.50000,  1190.50000
    635.48,  2778.60000,  1186.40000
    635.95,  2767.60000,  1183.40000
    636.42,  2767.80000,  1190.00000
    636.88,  2764.50000,  1175.20000
    637.35,  2762.80000,  1171.10000
    637.81,  2777.30000,  1166.70000
    638.28,  2785.90000,  1169.10000
    638.74,  2801.90000,  1173.90000
    639.21,  2803.00000,  1181.90000
    639.68,  2782.30000,  1180.90000
    640.14,  2755.30000,  1179.30000
    640.61,  2769.20000,  1174.90000
    641.07,  2745.00000,  1173.80000
    641.54,  2767.30000,  1161.50000
    642.00,  2786.10000,  1156.50000
    642.47,  2805.30000,  1150.10000
    642.93,  2816.90000,  1138.60000
    643.40,  2820.20000,  1138.60000
    643.87,  2797.00000,  1145.90000
    644.33,  2797.70000,  1147.20000
    644.80,  2798.10000,  1155.10000
    645.26,  2784.60000,  1151.30000
    645.73,  2779.30000,  1140.80000
    646.19,  2767.80000,  1143.40000
    646.66,  2766.40000,  1151.20000
    647.12,  2752.40000,  1160.00000
    647.59,  2765.50000,  1166.00000
    648.05,  2779.40000,  1165.20000
    648.52,  2775.30000,  1166.60000
    648.98,  2773.80000,  1166.70000
    649.45,  2763.00000,  1165.60000
    649.91,  2740.60000,  1158.50000
    650.38,  2744.00000,  1151.80000
    650.84,  2789.60000,  1147.50000
    651.31,  2782.60000,  1149.00000
    651.77,  2778.90000,  1153.80000
    652.24,  2759.30000,  1150.40000
    652.70,  2735.90000,  1148.60000
    653.17,  2723.40000,  1150.40000
    653.63,  2755.90000,  1149.80000
    654.10,  2747.90000,  1155.80000
    654.56,  2762.80000,  1164.20000
    655.03,  2763.50000,  1161.00000
    655.49,  2771.70000,  1156.80000
    655.96,  2774.60000,  1144.80000
    656.42,  2771.80000,  1128.20000
    656.89,  2753.80000,  1122.30000
    657.35,  2802.90000,  1129.60000
    657.82,  2839.60000,  1139.10000
    658.28,  2869.90000,  1147.30000
    658.75,  2882.50000,  1148.50000
    659.21,  2842.20000,  1151.70000
    659.68,  2811.60000,  1147.80000
    660.14,  2802.70000,  1142.00000
    660.61,  2771.30000,  1134.30000
    661.07,  2799.50000,  1126.90000
    661.53,  2815.70000,  1120.10000
    662.00,  2832.70000,  1128.30000
    662.46,  2826.60000,  1128.10000
    662.93,  2811.20000,  1118.90000
    663.39,  2782.50000,  1122.40000
    663.86,  2810.60000,  1119.40000
    664.32,  2807.20000,  1116.70000
    664.79,  2827.00000,  1124.40000
    665.25,  2805.40000,  1128.60000
    665.71,  2783.70000,  1125.60000
    666.18,  2749.40000,  1126.70000
    666.64,  2773.50000,  1121.90000
    667.11,  2777.30000,  1105.30000
    667.57,  2801.00000,  1098.50000
    668.04,  2815.20000,  1099.00000
    668.50,  2805.00000,  1095.50000
    668.96,  2782.90000,  1091.40000
    669.43,  2802.30000,  1094.90000
    669.89,  2778.70000,  1090.40000
    670.36,  2762.50000,  1085.70000
    670.82,  2756.80000,  1090.70000
    671.28,  2763.00000,  1089.70000
    671.75,  2772.40000,  1088.00000
    672.21,  2794.00000,  1090.70000
    672.68,  2799.60000,  1082.80000
    673.14,  2814.40000,  1077.50000
    673.60,  2831.10000,  1033.60000
    674.07,  2814.20000,  1132.20000
    674.53,  2785.50000,  1243.60000
    675.00,  2768.40000,  1301.60000
    675.46,  2749.30000,  1284.00000
    675.92,  2748.20000,  1208.60000
    676.39,  2782.60000,  1069.30000
    676.85,  2786.70000,  1067.90000
    677.31,  2798.10000,  1078.00000
    677.78,  2810.30000,  1067.40000
    678.24,  2793.00000,  1060.90000
    678.70,  2774.60000,  1061.40000
    679.17,  2760.20000,  1059.90000
    679.63,  2731.60000,  1067.00000
    680.10,  2731.50000,  1078.70000
    680.56,  2756.50000,  1067.70000
    681.02,  2758.70000,  1060.40000
    681.49,  2790.40000,  1060.70000
    681.95,  2791.20000,  1053.70000
    682.41,  2776.80000,  1054.60000
    682.88,  2772.60000,  1060.00000
    683.34,  2769.90000,  1054.40000
    683.80,  2748.70000,  1052.70000
    684.27,  2772.40000,  1045.50000
    684.73,  2778.50000,  1042.80000
    685.19,  2795.40000,  1038.40000
    685.66,  2817.90000,  1045.30000
    686.12,  2820.10000,  1045.30000
    686.58,  2838.30000,  1045.10000
    687.05,  2833.20000,  1043.50000
    687.51,  2810.90000,  1043.30000
    687.97,  2793.20000,  1040.20000
    688.44,  2786.70000,  1057.30000
    688.90,  2786.50000,  1052.40000
    689.36,  2797.80000,  1042.50000
    689.83,  2805.00000,  1035.10000
    690.29,  2819.60000,  1019.70000
    690.75,  2829.40000,  1015.20000
    691.21,  2831.20000,  1030.00000
    691.68,  2811.40000,  1030.50000
    692.14,  2773.70000,  1038.90000
    692.60,  2792.10000,  1035.60000
    693.07,  2780.00000,  1029.80000
    693.53,  2801.40000,  1023.10000
    693.99,  2817.40000,  1028.30000
    694.45,  2814.50000,  1025.80000
    694.92,  2824.90000,  1027.50000
    695.38,  2837.70000,  1027.30000
    695.84,  2811.60000,  1033.50000
    696.31,  2795.10000,  1025.50000
    696.77,  2800.90000,  1028.90000
    697.23,  2794.40000,  1025.80000
    697.69,  2796.50000,  1020.40000
    698.16,  2781.70000,  1023.40000
    698.62,  2769.70000,  1025.10000
    699.08,  2751.10000,  1011.40000
    699.54,  2760.80000,  1005.00000
    700.01,  2756.20000,   997.70000
    700.47,  2740.70000,   994.20000
    700.93,  2739.20000,   997.00000
    701.39,  2744.30000,  1004.90000
    701.86,  2757.30000,  1005.20000
    702.32,  2756.10000,  1009.50000
    702.78,  2760.20000,  1013.70000
    703.24,  2753.00000,  1013.40000
    703.71,  2765.30000,  1004.60000
    704.17,  2782.20000,  1004.60000
    704.63,  2779.20000,  1003.40000
    705.09,  2767.80000,  1000.80000
    705.56,  2788.60000,  1015.00000
    706.02,  2786.50000,  1020.50000
    706.48,  2775.40000,  1013.20000
    706.94,  2773.70000,  1007.30000
    707.40,  2753.40000,   994.70000
    707.87,  2758.20000,   984.20000
    708.33,  2773.00000,   984.00000
    708.79,  2757.90000,   989.60000
    709.25,  2738.00000,   983.30000
    709.72,  2748.30000,   987.90000
    710.18,  2761.20000,  1001.70000
    710.64,  2758.80000,  1006.20000
    711.10,  2749.30000,  1003.40000
    711.56,  2746.90000,  1005.10000
    712.03,  2774.20000,   982.10000
    712.49,  2802.50000,   973.60000
    712.95,  2825.10000,   978.80000
    713.41,  2811.60000,   969.70000
    713.87,  2804.70000,   972.70000
    714.33,  2797.60000,   983.70000
    714.80,  2784.70000,   992.30000
    715.26,  2741.10000,   992.10000
    715.72,  2736.80000,   992.80000
    716.18,  2735.20000,   988.40000
    716.64,  2755.40000,   982.60000
    717.11,  2762.90000,   975.30000
    717.57,  2760.10000,   977.60000
    718.03,  2730.40000,   975.90000
    718.49,  2739.10000,   979.50000
    718.95,  2779.30000,   983.50000
    719.41,  2785.40000,   985.30000
    719.87,  2758.50000,   982.10000
    720.34,  2754.70000,   987.30000
    720.80,  2746.80000,   993.10000
    721.26,  2747.10000,   982.90000
    721.72,  2786.10000,   964.30000
    722.18,  2772.70000,   958.60000
    722.64,  2745.70000,   957.80000
    723.10,  2752.10000,   965.60000
    723.57,  2758.60000,   976.00000
    724.03,  2764.80000,   986.10000
    724.49,  2765.80000,   983.60000
    724.95,  2727.50000,   989.00000
    725.41,  2785.00000,   989.90000
    725.87,  2834.80000,   975.50000
    726.33,  2856.50000,   965.10000
    726.80,  2860.70000,   960.80000
    727.26,  2812.00000,   965.10000
    727.72,  2731.00000,   970.40000
    728.18,  2740.60000,   973.20000
    728.64,  2734.30000,   974.50000
    729.10,  2748.10000,   977.50000
    729.56,  2768.40000,   978.80000
    730.02,  2790.10000,   979.70000
    730.48,  2793.50000,   972.20000
    730.94,  2783.20000,   963.00000
    731.41,  2771.80000,   965.30000
    731.87,  2749.80000,   963.70000
    732.33,  2732.80000,   956.20000
    732.79,  2763.70000,   956.00000
    733.25,  2765.70000,   951.10000
    733.71,  2775.20000,   946.10000
    734.17,  2787.40000,   948.30000
    734.63,  2760.10000,   949.10000
    735.09,  2741.30000,   953.50000
    735.55,  2743.80000,   963.90000
    736.01,  2732.90000,   963.60000
    736.47,  2742.70000,   964.60000
    736.94,  2754.50000,   954.60000
    737.40,  2768.40000,   952.00000
    737.86,  2766.80000,   958.60000
    738.32,  2774.10000,   961.50000
    738.78,  2783.60000,   961.20000
    739.24,  2773.20000,   959.90000
    739.70,  2768.20000,   952.40000
    740.16,  2792.70000,   950.20000
    740.62,  2801.60000,   948.30000
    741.08,  2818.20000,   954.80000
    741.54,  2805.20000,   958.10000
    742.00,  2780.40000,   963.50000
    742.46,  2752.60000,   968.30000
    742.92,  2724.60000,   972.70000
    743.38,  2723.30000,   974.50000
    743.84,  2724.30000,   976.40000
    744.30,  2742.60000,   972.10000
    744.76,  2758.20000,   968.50000
    745.22,  2764.50000,   960.20000
    745.68,  2746.20000,   952.80000
    746.14,  2734.10000,   956.90000
    746.60,  2735.30000,   959.40000
    747.06,  2752.50000,   948.30000
    747.52,  2739.90000,   940.80000
    747.98,  2759.80000,   942.90000
    748.44,  2769.60000,   937.40000
    748.90,  2759.20000,   948.80000
    749.36,  2767.40000,   949.80000
    749.82,  2775.10000,   947.60000
    750.28,  2782.90000,   942.80000
    750.74,  2799.40000,   953.30000
    751.20,  2795.30000,   961.50000
    751.66,  2772.30000,   968.30000
    752.12,  2760.10000,   954.70000
    752.58,  2764.30000,   947.60000
    753.04,  2785.00000,   932.80000
    753.50,  2812.70000,   928.90000
    753.96,  2796.00000,   938.90000
    754.42,  2764.00000,   942.90000
    754.88,  2736.30000,   949.30000
    755.34,  2729.50000,   953.60000
    755.80,  2752.50000,   954.80000
    756.26,  2773.60000,   952.00000
    756.72,  2779.80000,   950.40000
    757.18,  2782.20000,   943.70000
    757.64,  2769.90000,   950.00000
    758.10,  2742.40000,   942.80000
    758.56,  2721.20000,   947.80000
    759.02,  2723.10000,   948.00000
    759.48,  2730.60000,   947.30000
    759.94,  2755.30000,   948.10000
    760.40,  2762.10000,   956.40000
    760.86,  2757.20000,   950.60000
    761.32,  2755.00000,   954.90000
    761.78,  2780.70000,   954.20000
    762.24,  2762.90000,   940.50000
    762.70,  2772.90000,   932.60000
    763.15,  2756.40000,   933.80000
    763.61,  2756.00000,   934.90000
    764.07,  2767.80000,   935.80000
    764.53,  2768.70000,   949.20000
    764.99,  2773.30000,   939.40000
    765.45,  2792.00000,   947.00000
    765.91,  2780.00000,   944.80000
    766.37,  2767.90000,   940.40000
    766.83,  2743.50000,   931.60000
    767.29,  2741.50000,   936.10000
    767.75,  2744.20000,   934.90000
    768.21,  2754.80000,   948.30000
    768.66,  2771.10000,   947.70000
    769.12,  2777.90000,   952.00000
    769.58,  2751.10000,   950.00000
    770.04,  2744.30000,   950.60000
    770.50,  2713.40000,   953.70000
    770.96,  2696.30000,   958.30000
    771.42,  2730.20000,   956.40000
    771.88,  2744.50000,   962.00000
    772.34,  2755.80000,   958.00000
    772.80,  2751.90000,   945.20000
    773.25,  2732.50000,   941.10000
    773.71,  2726.40000,   944.20000
    774.17,  2713.40000,   948.70000
    774.63,  2726.30000,   950.60000
    775.09,  2743.90000,   952.90000
    775.55,  2735.30000,   941.90000
    776.01,  2710.60000,   939.50000
    776.47,  2716.30000,   935.20000
    776.92,  2692.90000,   931.30000
    777.38,  2719.80000,   931.30000
    777.84,  2727.50000,   942.40000
    778.30,  2721.90000,   944.20000
    778.76,  2705.40000,   952.50000
    779.22,  2731.60000,   945.10000
    779.68,  2737.90000,   932.60000
    780.13,  2746.10000,   937.70000
    780.59,  2730.90000,   946.90000
    781.05,  2710.50000,   951.30000
    781.51,  2715.30000,   956.10000
    781.97,  2737.20000,   948.70000
    782.43,  2746.80000,   939.80000
    782.88,  2757.80000,   950.30000
    783.34,  2749.50000,   946.90000
    783.80,  2750.80000,   943.80000
    784.26,  2772.80000,   939.60000
    784.72,  2759.90000,   937.40000
    785.18,  2744.20000,   931.10000
    785.63,  2719.70000,   950.90000
    786.09,  2731.60000,   946.60000
    786.55,  2772.50000,   945.20000
    787.01,  2796.30000,   942.20000
    787.47,  2775.20000,   935.80000
    787.92,  2744.70000,   931.40000
    788.38,  2713.10000,   933.10000
    788.84,  2704.30000,   930.60000
    789.30,  2724.80000,   935.90000
    789.76,  2731.80000,   936.10000
    790.21,  2735.00000,   931.00000
    790.67,  2724.00000,   933.30000
    791.13,  2724.60000,   932.60000
    791.59,  2700.30000,   933.80000
    792.05,  2701.20000,   935.70000
    792.50,  2715.10000,   938.60000
    792.96,  2740.80000,   934.20000
    793.42,  2725.10000,   930.00000
    793.88,  2734.70000,   938.50000
    794.33,  2707.90000,   939.00000
    794.79,  2703.20000,   940.50000
    795.25,  2711.30000,   939.90000
    795.71,  2725.20000,   937.60000
    796.17,  2730.10000,   928.30000
    796.62,  2735.20000,   924.80000
    797.08,  2709.20000,   921.10000
    797.54,  2702.90000,   923.30000
    798.00,  2701.60000,   919.40000
    798.45,  2715.50000,   924.30000
    798.91,  2726.70000,   930.60000
    799.37,  2732.10000,   930.30000
    799.83,  2728.00000,   930.20000
    800.28,  2711.50000,   925.10000
    800.74,  2704.40000,   923.50000
    801.20,  2726.20000,   921.10000
    801.66,  2710.80000,   920.30000
    802.11,  2722.40000,   915.10000
    802.57,  2741.50000,   911.40000
    803.03,  2718.00000,   901.80000
    803.48,  2697.70000,   906.70000
    803.94,  2753.20000,   914.40000
    804.40,  2769.30000,   917.80000
    804.86,  2786.00000,   926.10000
    805.31,  2776.10000,   926.50000
    805.77,  2723.90000,   926.10000
    806.23,  2673.50000,   918.80000
    806.69,  2702.90000,   921.50000
    807.14,  2708.90000,   913.20000
    807.60,  2722.10000,   925.20000
    808.06,  2725.70000,   929.90000
    808.51,  2722.60000,   935.00000
    808.97,  2697.40000,   928.60000
    809.43,  2699.90000,   932.40000
    809.88,  2693.80000,   934.60000
    810.34,  2678.10000,   953.60000
    810.80,  2699.30000,   952.60000
    811.26,  2722.50000,   937.90000
    811.71,  2711.80000,   923.80000
    812.17,  2732.00000,   916.10000
    812.63,  2724.90000,   913.10000
    813.08,  2697.90000,   912.20000
    813.54,  2708.40000,   909.40000
    814.00,  2722.50000,   911.00000
    814.45,  2720.20000,   915.10000
    814.91,  2734.90000,   922.30000
    815.37,  2726.70000,   914.20000
    815.82,  2710.80000,   908.60000
    816.28,  2695.40000,   911.10000
    816.74,  2692.80000,   916.60000
    817.19,  2673.10000,   908.30000
    817.65,  2684.50000,   917.80000
    818.11,  2715.20000,   909.90000
    818.56,  2719.10000,   917.80000
    819.02,  2706.70000,   920.20000
    819.48,  2710.10000,   922.60000
    819.93,  2681.40000,   907.90000
    820.39,  2702.00000,   896.30000
    820.84,  2741.70000,   880.10000
    821.30,  2757.00000,   885.90000
    821.76,  2759.40000,   891.70000
    822.21,  2764.10000,   903.20000
    822.67,  2734.40000,   913.90000
    823.13,  2691.20000,   915.00000
    823.58,  2718.10000,   915.80000
    824.04,  2736.80000,   924.40000
    824.49,  2737.30000,   930.10000
    824.95,  2750.60000,   917.10000
    825.41,  2751.60000,   910.90000
    825.86,  2723.60000,   905.40000
    826.32,  2756.00000,   892.50000
    826.78,  2737.00000,   892.90000
    827.23,  2710.70000,   892.10000
    827.69,  2697.50000,   880.30000
    828.14,  2698.50000,   884.90000
    828.60,  2714.80000,   898.60000
    829.06,  2740.80000,   893.80000
    829.51,  2724.40000,   901.20000
    829.97,  2734.80000,   893.60000
    830.42,  2730.30000,   884.90000
    830.88,  2709.60000,   887.90000
    831.34,  2705.30000,   889.10000
    831.79,  2727.00000,   883.50000
    832.25,  2726.50000,   893.10000
    832.70,  2731.00000,   890.80000
    833.16,  2737.30000,   890.00000
    833.61,  2727.40000,   899.00000
    834.07,  2729.40000,   887.00000
    834.53,  2723.90000,   883.00000
    834.98,  2709.00000,   889.70000
    835.44,  2685.90000,   882.70000
    835.89,  2695.60000,   881.10000
    836.35,  2709.80000,   892.40000
    836.80,  2745.50000,   884.90000
    837.26,  2734.80000,   876.00000
    837.71,  2714.80000,   870.20000
    838.17,  2704.60000,   864.60000
    838.63,  2693.60000,   869.60000
    839.08,  2686.40000,   879.30000
    839.54,  2701.70000,   890.10000
    839.99,  2700.30000,   885.10000
    840.45,  2714.30000,   885.10000
    840.90,  2736.70000,   884.20000
    841.36,  2748.90000,   880.70000
    841.81,  2740.80000,   879.70000
    842.27,  2722.00000,   881.40000
    842.72,  2704.20000,   879.80000
    843.18,  2703.50000,   886.10000
    843.63,  2685.70000,   877.60000
    844.09,  2688.10000,   871.40000
    844.55,  2677.00000,   875.00000
    845.00,  2666.90000,   880.90000
    845.46,  2680.00000,   885.60000
    845.91,  2695.60000,   886.00000
    846.37,  2708.40000,   884.90000
    846.82,  2732.30000,   884.90000
    847.28,  2739.40000,   881.40000
    847.73,  2689.10000,   886.30000
    848.19,  2720.50000,   883.10000
    848.64,  2737.00000,   877.90000
    849.10,  2752.50000,   885.40000
    849.55,  2754.60000,   888.30000
    850.01,  2745.20000,   879.50000
    850.46,  2687.70000,   875.80000
    850.92,  2717.40000,   870.80000
    851.37,  2731.30000,   864.80000
    851.83,  2728.90000,   872.30000
    852.28,  2726.80000,   879.50000
    852.73,  2709.10000,   881.00000
    853.19,  2678.50000,   883.40000
    853.64,  2681.10000,   881.30000
    854.10,  2685.90000,   873.30000
    854.55,  2690.20000,   870.10000
    855.01,  2697.60000,   873.20000
    855.46,  2679.80000,   872.70000
    855.92,  2670.40000,   877.90000
    856.37,  2667.10000,   884.10000
    856.83,  2669.40000,   875.70000
    857.28,  2694.40000,   868.00000
    857.74,  2697.60000,   868.70000
    858.19,  2692.50000,   875.40000
    858.64,  2707.70000,   873.40000
    859.10,  2692.80000,   882.00000
    859.55,  2674.00000,   880.60000
    860.01,  2726.00000,   884.40000
    860.46,  2754.50000,   881.90000
    860.92,  2747.80000,   885.70000
    861.37,  2743.80000,   873.00000
    861.83,  2736.60000,   870.70000
    862.28,  2714.40000,   862.70000
    862.73,  2736.20000,   861.80000
    863.19,  2728.40000,   864.00000
    863.64,  2706.20000,   862.00000
    864.10,  2685.20000,   867.30000
    864.55,  2705.70000,   872.20000
    865.01,  2707.90000,   870.20000
    865.46,  2723.80000,   868.70000
    865.91,  2702.00000,   875.10000
    866.37,  2696.20000,   867.00000
    866.82,  2684.80000,   866.10000
    867.28,  2683.40000,   863.30000
    867.73,  2677.80000,   866.70000
    868.18,  2710.70000,   868.30000
    868.64,  2712.90000,   878.30000
    869.09,  2738.40000,   880.90000
    869.55,  2748.70000,   871.10000
    870.00,  2732.20000,   866.60000
    870.45,  2724.00000,   861.20000
    870.91,  2698.80000,   868.20000
    871.36,  2677.20000,   875.60000
    871.81,  2692.40000,   875.80000
    872.27,  2713.80000,   873.40000
    872.72,  2710.20000,   871.80000
    873.18,  2709.60000,   867.40000
    873.63,  2682.40000,   867.80000
    874.08,  2677.90000,   875.10000
    874.54,  2700.20000,   876.60000
    874.99,  2700.20000,   884.90000
    875.44,  2679.20000,   880.90000
    875.90,  2656.10000,   887.00000
    876.35,  2654.80000,   880.10000
    876.81,  2692.90000,   881.70000
    877.26,  2733.30000,   881.50000
    877.71,  2717.40000,   883.40000
    878.17,  2691.30000,   879.60000
    878.62,  2698.90000,   882.10000
    879.07,  2713.10000,   883.50000
    879.53,  2739.90000,   871.10000
    879.98,  2734.30000,   870.10000
    880.43,  2715.10000,   877.30000
    880.89,  2699.90000,   879.40000
    881.34,  2704.50000,   880.50000
    881.79,  2712.10000,   888.30000
    882.25,  2707.70000,   882.40000
    882.70,  2683.00000,   879.50000
    883.15,  2675.30000,   876.30000
    883.61,  2691.50000,   876.90000
    884.06,  2682.80000,   873.10000
    884.51,  2705.20000,   871.60000
    884.97,  2692.80000,   875.90000
    885.42,  2699.70000,   874.60000
    885.87,  2693.30000,   878.30000
    886.32,  2707.60000,   885.30000
    886.78,  2682.80000,   884.90000
    887.23,  2690.10000,   887.90000
    887.68,  2684.60000,   884.50000
    888.14,  2693.40000,   884.50000
    888.59,  2677.40000,   884.40000
    889.04,  2660.30000,   891.70000
    889.50,  2631.20000,   895.10000
    889.95,  2648.10000,   896.50000
    890.40,  2684.50000,   876.50000
    890.85,  2704.80000,   869.10000
    891.31,  2696.70000,   866.30000
    891.76,  2689.20000,   880.00000
    892.21,  2665.20000,   896.10000
    892.67,  2676.50000,   908.50000
    893.12,  2677.00000,   908.90000
    893.57,  2686.30000,   907.50000
    894.02,  2699.60000,   897.10000
    894.48,  2724.80000,   890.30000
    894.93,  2718.00000,   890.10000
    895.38,  2723.50000,   894.20000
    895.83,  2697.90000,   898.20000
    896.29,  2693.70000,   901.90000
    896.74,  2691.00000,   895.10000
    897.19,  2706.10000,   891.90000
    897.64,  2709.00000,   896.60000
    898.10,  2713.60000,   906.70000
    898.55,  2691.70000,   909.40000
    899.00,  2684.20000,   913.80000
    899.45,  2653.30000,   907.80000
    899.91,  2646.30000,   906.00000
    900.36,  2627.00000,   917.80000
    900.81,  2657.70000,   925.70000
    901.26,  2679.30000,   927.10000
    901.72,  2702.70000,   923.70000
    902.17,  2700.30000,   907.10000
    902.62,  2710.40000,   902.80000
    903.07,  2675.20000,   905.70000
    903.52,  2686.60000,   909.40000
    903.98,  2691.30000,   909.60000
    904.43,  2695.80000,   910.50000
    904.88,  2681.50000,   908.50000
    905.33,  2693.80000,   901.80000
    905.79,  2678.90000,   904.40000
    906.24,  2690.20000,   911.60000
    906.69,  2701.40000,   915.40000
    907.14,  2700.00000,   916.40000
    907.59,  2661.30000,   935.20000
    908.05,  2642.40000,   941.10000
    908.50,  2627.90000,   937.70000
    908.95,  2645.20000,   931.80000
    909.40,  2665.20000,   917.60000
    909.85,  2668.50000,   896.90000
    910.31,  2664.10000,   911.70000
    910.76,  2643.70000,   930.30000
    911.21,  2628.20000,   939.10000
    911.66,  2626.20000,   944.10000
    912.11,  2622.90000,   944.20000
    912.56,  2647.40000,   940.80000
    913.02,  2672.60000,   956.10000
    913.47,  2671.50000,   970.40000
    913.92,  2667.70000,   977.60000
    914.37,  2649.40000,   982.60000
    914.82,  2646.30000,   991.50000
    915.27,  2662.70000,  1005.60000
    915.73,  2682.70000,  1018.60000
    916.18,  2672.30000,  1031.20000
    916.63,  2657.60000,  1033.00000
    917.08,  2621.70000,  1030.90000
    917.53,  2661.10000,  1033.30000
    917.98,  2554.60000,  1042.30000
    918.44,  2896.20000,  1057.00000
    918.89,  3077.90000,  1080.90000
    919.34,  3127.80000,  1100.30000
    919.79,  3036.80000,  1126.20000
    920.24,  2873.10000,  1147.40000
    920.69,  2559.80000,  1165.20000
    921.14,  2690.30000,  1195.70000
    921.59,  2686.20000,  1227.10000
    922.05,  2679.20000,  1265.90000
    922.50,  2673.50000,  1323.30000
    922.95,  2687.30000,  1390.40000
    923.40,  2701.70000,  1474.50000
    923.85,  2710.40000,  1582.70000
    924.30,  2713.00000,  1715.10000
    924.75,  2705.00000,  1859.30000
    925.20,  2685.40000,  2022.70000
    925.66,  2670.40000,  2213.20000
    926.11,  2664.40000,  2423.80000
    926.56,  2669.30000,  2668.30000
    927.01,  2688.60000,  2938.00000
    927.46,  2687.50000,  3232.40000
    927.91,  2650.60000,  3571.60000
    928.36,  2620.10000,  3924.30000
    928.81,  2623.50000,  4276.30000
    929.26,  2639.70000,  4605.30000
    929.71,  2676.20000,  4912.70000
    930.16,  2697.80000,  5210.80000
    930.62,  2677.60000,  5485.50000
    931.07,  2661.90000,  5750.10000
    931.52,  2658.60000,  5960.60000
    931.97,  2667.90000,  6116.00000
    932.42,  2673.90000,  6261.70000
    932.87,  2686.50000,  6399.50000
    933.32,  2671.80000,  6497.80000
    933.77,  2684.00000,  6597.70000
    934.22,  2679.80000,  6668.20000
    934.67,  2699.10000,  6747.70000
    935.12,  2691.20000,  6826.90000
    935.57,  2671.40000,  6883.30000
    936.02,  2639.70000,  6884.50000
    936.47,  2659.80000,  6850.60000
    936.93,  2642.90000,  6815.10000
    937.38,  2651.80000,  6836.30000
    937.83,  2666.20000,  6913.70000
    938.28,  2656.20000,  7082.80000
    938.73,  2646.50000,  7342.70000
    939.18,  2662.80000,  7631.00000
    939.63,  2664.90000,  7890.90000
    940.08,  2676.30000,  8084.20000
    940.53,  2703.50000,  8223.90000
    940.98,  2695.50000,  8344.70000
    941.43,  2671.80000,  8431.20000
    941.88,  2662.10000,  8523.10000
    942.33,  2670.50000,  8594.30000
    942.78,  2670.80000,  8640.90000
    943.23,  2688.30000,  8707.30000
    943.68,  2683.00000,  8755.90000
    944.13,  2683.40000,  8716.60000
    944.58,  2689.10000,  8676.70000
    945.03,  2685.00000,  8689.30000
    945.48,  2660.60000,  8732.70000
    945.93,  2657.00000,  8795.70000
    946.38,  2661.40000,  8837.40000
    946.83,  2689.50000,  8814.80000
    947.28,  2707.60000,  8803.70000
    947.73,  2710.60000,  8875.60000
    948.18,  2690.40000,  8887.50000
    948.63,  2669.60000,  8867.50000
    949.08,  2656.50000,  8805.50000
    949.53,  2641.30000,  8701.90000
    949.98,  2629.20000,  8644.50000
    950.43,  2642.10000,  8626.00000
    950.88,  2656.60000,  8516.60000
    951.33,  2671.90000,  8386.80000
    951.78,  2697.10000,  8247.90000
    952.23,  2701.80000,  8133.60000
    952.68,  2680.70000,  8081.50000
    953.13,  2682.40000,  8064.90000
    953.58,  2685.60000,  8025.60000
    954.03,  2671.70000,  7991.70000
    954.48,  2665.60000,  7950.20000
    954.93,  2661.00000,  7910.80000
    955.38,  2647.60000,  7794.70000
    955.83,  2657.80000,  7633.10000
    956.28,  2661.30000,  7428.30000
    956.73,  2666.30000,  7202.20000
    957.18,  2669.60000,  6987.40000
    957.62,  2657.90000,  6804.50000
    958.07,  2670.40000,  6596.10000
    958.52,  2654.70000,  6483.40000
    958.97,  2642.00000,  6366.70000
    959.42,  2644.40000,  6212.60000
    959.87,  2639.60000,  6061.10000
    960.32,  2643.60000,  5867.40000
    960.77,  2671.70000,  5656.40000
    961.22,  2703.80000,  5502.30000
    961.67,  2720.40000,  5324.60000
    962.12,  2698.70000,  5163.70000
    962.57,  2668.40000,  5043.70000
    963.02,  2667.70000,  4922.70000
    963.47,  2656.20000,  4833.50000
    963.92,  2683.00000,  4757.90000
    964.36,  2688.40000,  4681.80000
    964.81,  2680.90000,  4615.40000
    965.26,  2678.90000,  4562.50000
    965.71,  2686.70000,  4508.00000
    966.16,  2677.20000,  4439.50000
    966.61,  2661.30000,  4342.80000
    967.06,  2646.70000,  4223.30000
    967.51,  2659.00000,  4084.50000
    967.96,  2671.90000,  3938.50000
    968.41,  2678.90000,  3801.30000
    968.85,  2678.10000,  3661.40000
    969.30,  2667.10000,  3505.50000
    969.75,  2683.00000,  3346.80000
    970.20,  2688.10000,  3207.70000
    970.65,  2698.20000,  3070.70000
    971.10,  2680.80000,  2963.80000
    971.55,  2681.30000,  2875.10000
    972.00,  2663.20000,  2782.20000
    972.44,  2659.20000,  2691.30000
    972.89,  2677.40000,  2631.50000
    973.34,  2689.10000,  2580.50000
    973.79,  2681.70000,  2540.50000
    974.24,  2691.40000,  2504.60000
    974.69,  2664.20000,  2475.50000
    975.14,  2638.90000,  2446.80000
    975.59,  2644.30000,  2459.10000
    976.03,  2629.90000,  2477.00000
    976.48,  2627.00000,  2476.50000
    976.93,  2631.40000,  2463.50000
    977.38,  2634.20000,  2458.40000
    977.83,  2631.30000,  2448.30000
    978.28,  2639.50000,  2465.90000
    978.72,  2653.60000,  2473.40000
    979.17,  2669.90000,  2467.10000
    979.62,  2683.60000,  2449.20000
    980.07,  2694.60000,  2423.60000
    980.52,  2678.30000,  2409.40000
    980.97,  2646.50000,  2432.80000
    981.41,  2602.40000,  2462.20000
    981.86,  2582.50000,  2490.60000
    982.31,  2604.80000,  2480.20000
    982.76,  2633.40000,  2419.80000
    983.21,  2671.80000,  2341.50000
    983.66,  2676.40000,  2267.20000
    984.10,  2644.00000,  2188.90000
    984.55,  2626.00000,  2101.90000
    985.00,  2615.40000,  2018.60000
    985.45,  2601.20000,  1941.20000
    985.90,  2617.30000,  1872.50000
    986.34,  2631.80000,  1832.40000
    986.79,  2619.40000,  1797.90000
    987.24,  2618.00000,  1761.10000
    987.69,  2597.70000,  1723.40000
    988.14,  2601.10000,  1677.20000
    988.58,  2617.00000,  1619.90000
    989.03,  2634.30000,  1575.70000
    989.48,  2644.20000,  1529.10000
    989.93,  2646.40000,  1490.20000
    990.38,  2629.00000,  1444.30000
    990.82,  2635.20000,  1401.90000
    991.27,  2648.60000,  1365.50000
    991.72,  2664.10000,  1348.40000
    992.17,  2647.40000,  1341.90000
    992.61,  2647.80000,  1327.80000
    993.06,  2632.80000,  1301.20000
    993.51,  2656.20000,  1279.50000
    993.96,  2662.50000,  1258.80000
    994.41,  2651.10000,  1246.30000
    994.85,  2628.70000,  1234.60000
    995.30,  2635.70000,  1216.70000
    995.75,  2633.00000,  1198.40000
    996.20,  2670.70000,  1185.30000
    996.64,  2652.80000,  1165.50000
    997.09,  2621.90000,  1144.90000
    997.54,  2618.30000,  1119.90000
    997.99,  2608.00000,  1098.80000
    998.43,  2610.10000,  1090.10000
    998.88,  2618.60000,  1078.60000
    999.33,  2618.40000,  1085.20000
    999.77,  2636.10000,  1094.80000
   1000.22,  2654.00000,  1089.70000
   1000.67,  2658.50000,  1084.90000
   1001.12,  2661.70000,  1082.90000
   1001.56,  2631.30000,  1069.30000
   1002.01,  2614.60000,  1075.40000
   1002.46,  2627.90000,  1080.80000
   1002.91,  2612.90000,  1068.90000
   1003.35,  2626.40000,  1063.60000
   1003.80,  2625.90000,  1056.70000
   1004.25,  2623.80000,  1052.00000
   1004.69,  2631.40000,  1047.30000
   1005.14,  2618.60000,  1051.80000
   1005.59,  2618.50000,  1048.10000
   1006.04,  2642.70000,  1052.90000
   1006.48,  2658.70000,  1047.70000
   1006.93,  2682.10000,  1056.10000
   1007.38,  2676.90000,  1054.40000
   1007.82,  2632.00000,  1050.80000
   1008.27,  2610.50000,  1045.80000
   1008.72,  2597.60000,  1039.50000
   1009.16,  2602.60000,  1031.80000
   1009.61,  2619.30000,  1027.50000
   1010.06,  2622.70000,  1034.40000
   1010.50,  2645.90000,  1037.30000
   1010.95,  2667.10000,  1036.00000
   1011.40,  2671.30000,  1030.20000
   1011.85,  2648.70000,  1035.80000
   1012.29,  2635.00000,  1034.90000
   1012.74,  2601.00000,  1045.30000
   1013.19,  2600.40000,  1045.90000
   1013.63,  2650.50000,  1037.80000
   1014.08,  2677.80000,  1034.20000
   1014.53,  2675.00000,  1036.70000
   1014.97,  2658.80000,  1044.80000
   1015.42,  2628.30000,  1043.80000
   1015.86,  2595.40000,  1043.70000
   1016.31,  2613.50000,  1046.50000
   1016.76,  2636.80000,  1042.30000
   1017.20,  2630.60000,  1034.40000
   1017.65,  2616.80000,  1022.60000
   1018.10,  2617.90000,  1014.10000
   1018.54,  2602.90000,  1015.30000
   1018.99,  2623.10000,  1015.70000
   1019.44,  2626.90000,  1017.90000
   1019.88,  2623.60000,  1019.60000
   1020.33,  2623.00000,  1022.20000
   1020.78,  2629.10000,  1030.90000
   1021.22,  2635.70000,  1039.10000
   1021.67,  2636.40000,  1040.70000
   1022.11,  2623.60000,  1035.50000
   1022.56,  2625.90000,  1030.30000
   1023.01,  2613.70000,  1034.20000
   1023.45,  2599.70000,  1033.20000
   1023.90,  2599.90000,  1042.20000
   1024.34,  2578.80000,  1052.40000
   1024.79,  2586.30000,  1051.40000
   1025.24,  2611.20000,  1045.80000
   1025.68,  2605.90000,  1036.60000
   1026.13,  2613.90000,  1020.20000
   1026.58,  2617.50000,  1025.50000
   1027.02,  2627.00000,  1028.70000
   1027.47,  2633.10000,  1030.00000
   1027.91,  2634.70000,  1027.90000
   1028.36,  2608.00000,  1032.60000
   1028.80,  2603.90000,  1033.30000
   1029.25,  2583.90000,  1046.00000
   1029.70,  2587.60000,  1048.90000
   1030.14,  2589.90000,  1038.00000
   1030.59,  2585.00000,  1035.90000
   1031.03,  2585.50000,  1034.50000
   1031.48,  2601.20000,  1034.00000
   1031.93,  2627.00000,  1039.20000
   1032.37,  2647.40000,  1047.00000
   1032.82,  2654.10000,  1049.20000
   1033.26,  2653.50000,  1054.20000
   1033.71,  2630.30000,  1050.20000
   1034.15,  2617.80000,  1047.00000
   1034.60,  2611.10000,  1046.80000
   1035.05,  2620.30000,  1050.90000
   1035.49,  2611.40000,  1048.00000
   1035.94,  2608.80000,  1050.10000
   1036.38,  2578.40000,  1051.60000
   1036.83,  2560.70000,  1051.50000
   1037.27,  2546.20000,  1056.80000
   1037.72,  2552.30000,  1063.80000
   1038.16,  2655.30000,  1063.90000
   1038.61,  2727.80000,  1075.70000
   1039.05,  2742.90000,  1070.50000
   1039.50,  2730.60000,  1062.20000
   1039.95,  2677.10000,  1050.20000
   1040.39,  2604.70000,  1045.30000
   1040.84,  2609.70000,  1061.80000
   1041.28,  2603.60000,  1082.60000
   1041.73,  2604.10000,  1080.70000
   1042.17,  2612.30000,  1075.80000
   1042.62,  2619.80000,  1060.80000
   1043.06,  2629.70000,  1051.70000
   1043.51,  2606.70000,  1058.30000
   1043.95,  2610.10000,  1069.90000
   1044.40,  2612.90000,  1070.90000
   1044.84,  2596.00000,  1075.00000
   1045.29,  2586.80000,  1081.50000
   1045.73,  2591.40000,  1075.90000
   1046.18,  2573.40000,  1076.60000
   1046.62,  2569.20000,  1072.50000
   1047.07,  2564.30000,  1063.20000
   1047.51,  2547.40000,  1062.80000
   1047.96,  2582.90000,  1064.20000
   1048.40,  2629.90000,  1069.60000
   1048.85,  2649.60000,  1079.30000
   1049.29,  2635.20000,  1087.70000
   1049.74,  2588.20000,  1093.40000
   1050.18,  2550.70000,  1094.60000
   1050.63,  2557.30000,  1088.10000
   1051.07,  2574.50000,  1087.80000
   1051.52,  2597.40000,  1079.10000
   1051.96,  2583.70000,  1080.70000
   1052.41,  2561.60000,  1084.40000
   1052.85,  2555.30000,  1087.70000
   1053.30,  2547.30000,  1093.90000
   1053.74,  2552.70000,  1096.60000
   1054.18,  2564.60000,  1097.50000
   1054.63,  2552.20000,  1092.00000
   1055.07,  2546.70000,  1088.80000
   1055.52,  2544.40000,  1087.10000
   1055.96,  2540.50000,  1092.80000
   1056.41,  2534.30000,  1097.90000
   1056.85,  2522.10000,  1114.50000
   1057.30,  2520.50000,  1118.20000
   1057.74,  2516.80000,  1119.10000
   1058.18,  2516.60000,  1116.10000
   1058.63,  2494.30000,  1111.50000
   1059.07,  2493.80000,  1107.60000
   1059.52,  2508.10000,  1107.20000
   1059.96,  2518.60000,  1108.20000
   1060.41,  2516.00000,  1116.00000
   1060.85,  2519.60000,  1122.10000
   1061.30,  2501.20000,  1124.60000
   1061.74,  2495.20000,  1123.50000
   1062.18,  2496.10000,  1114.60000
   1062.63,  2478.10000,  1120.90000
   1063.07,  2473.10000,  1131.20000
   1063.52,  2485.10000,  1128.00000
   1063.96,  2506.20000,  1136.50000
   1064.40,  2506.50000,  1134.40000
   1064.85,  2496.20000,  1132.70000
   1065.29,  2468.20000,  1140.10000
   1065.74,  2448.60000,  1145.50000
   1066.18,  2424.50000,  1138.90000
