2D Measure spectrum data V5.74

<< MEASURE 1 >>
Data count = 2048
Exposure time = 30000 msec
Average = 10
Inspected time = 2020/10/23 15:45

Wave-dcm-1,Dark spec.  ,Spectrum
    108.17,  2243.80000,   802.90000
    108.66,  2248.40000,   801.60000
    109.15,  2256.70000,   794.70000
    109.65,  2282.70000,   781.10000
    110.14,  2291.20000,   773.20000
    110.63,  2301.80000,   755.60000
    111.13,  2322.50000,   737.60000
    111.62,  2309.70000,   733.80000
    112.11,  2319.30000,   728.50000
    112.60,  2341.20000,   723.00000
    113.10,  2329.60000,   719.80000
    113.59,  2349.50000,   713.20000
    114.08,  2365.70000,   714.30000
    114.58,  2355.00000,   719.30000
    115.07,  2395.60000,   719.00000
    115.56,  2405.30000,   722.20000
    116.06,  2401.00000,   717.10000
    116.55,  2407.70000,   712.00000
    117.04,  2401.40000,   713.60000
    117.53,  2386.50000,   707.50000
    118.03,  2414.70000,   709.90000
    118.52,  2412.90000,   718.30000
    119.01,  2404.10000,   728.50000
    119.51,  2490.90000,   731.20000
    120.00,  2583.00000,   742.30000
    120.49,  2620.00000,   747.10000
    120.98,  2615.40000,   763.80000
    121.48,  2535.40000,   775.80000
    121.97,  2432.60000,   798.40000
    122.46,  2425.20000,   806.50000
    122.95,  2451.20000,   820.10000
    123.45,  2488.70000,   827.00000
    123.94,  2496.40000,   834.20000
    124.43,  2521.40000,   837.60000
    124.92,  2556.40000,   844.20000
    125.42,  2556.40000,   859.30000
    125.91,  2567.70000,   878.20000
    126.40,  2554.40000,   902.50000
    126.89,  2520.50000,   931.90000
    127.39,  2511.00000,   950.80000
    127.88,  2507.70000,   960.30000
    128.37,  2508.10000,   971.30000
    128.86,  2528.40000,   984.30000
    129.35,  2524.20000,   994.90000
    129.85,  2527.10000,  1014.10000
    130.34,  2517.00000,  1022.80000
    130.83,  2519.40000,  1031.70000
    131.32,  2526.70000,  1039.90000
    131.81,  2533.90000,  1046.50000
    132.31,  2534.70000,  1052.80000
    132.80,  2542.60000,  1053.30000
    133.29,  2527.70000,  1055.30000
    133.78,  2537.80000,  1060.60000
    134.27,  2552.10000,  1069.00000
    134.77,  2561.50000,  1070.40000
    135.26,  2579.20000,  1083.60000
    135.75,  2575.40000,  1090.10000
    136.24,  2589.30000,  1109.80000
    136.73,  2576.80000,  1116.50000
    137.23,  2595.00000,  1122.30000
    137.72,  2598.10000,  1116.30000
    138.21,  2590.50000,  1133.10000
    138.70,  2567.90000,  1151.50000
    139.19,  2603.20000,  1169.10000
    139.68,  2590.10000,  1175.80000
    140.18,  2602.30000,  1170.50000
    140.67,  2620.10000,  1164.00000
    141.16,  2611.30000,  1179.80000
    141.65,  2596.60000,  1187.00000
    142.14,  2596.90000,  1195.80000
    142.63,  2619.90000,  1196.70000
    143.13,  2631.80000,  1189.10000
    143.62,  2669.00000,  1208.20000
    144.11,  2663.80000,  1233.20000
    144.60,  2623.60000,  1256.70000
    145.09,  2605.50000,  1277.00000
    145.58,  2665.40000,  1279.20000
    146.07,  2684.90000,  1283.20000
    146.56,  2698.90000,  1290.70000
    147.06,  2689.10000,  1295.70000
    147.55,  2646.70000,  1317.90000
    148.04,  2602.10000,  1332.20000
    148.53,  2635.80000,  1337.60000
    149.02,  2612.60000,  1349.90000
    149.51,  2692.80000,  1353.60000
    150.00,  2754.30000,  1363.50000
    150.49,  2769.60000,  1394.70000
    150.99,  2767.20000,  1420.50000
    151.48,  2744.80000,  1439.70000
    151.97,  2660.50000,  1467.30000
    152.46,  2662.90000,  1505.10000
    152.95,  2644.40000,  1534.50000
    153.44,  2643.20000,  1563.70000
    153.93,  2663.50000,  1593.30000
    154.42,  2682.10000,  1615.40000
    154.91,  2664.20000,  1627.50000
    155.40,  2647.40000,  1643.30000
    155.89,  2628.30000,  1652.20000
    156.39,  2649.00000,  1651.30000
    156.88,  2622.10000,  1662.00000
    157.37,  2634.90000,  1671.50000
    157.86,  2643.10000,  1675.40000
    158.35,  2658.90000,  1676.20000
    158.84,  2671.10000,  1705.70000
    159.33,  2723.40000,  1724.40000
    159.82,  2723.30000,  1769.30000
    160.31,  2737.80000,  1798.40000
    160.80,  2764.80000,  1832.60000
    161.29,  2722.70000,  1842.20000
    161.78,  2684.30000,  1860.40000
    162.27,  2656.30000,  1863.80000
    162.76,  2648.40000,  1885.90000
    163.25,  2666.90000,  1884.10000
    163.74,  2702.80000,  1886.00000
    164.23,  2710.40000,  1888.90000
    164.72,  2734.20000,  1903.40000
    165.21,  2705.00000,  1920.90000
    165.70,  2684.90000,  1941.30000
    166.20,  2721.20000,  1956.00000
    166.69,  2744.80000,  1957.80000
    167.18,  2756.70000,  1975.30000
    167.67,  2758.80000,  1992.70000
    168.16,  2728.90000,  2011.20000
    168.65,  2683.80000,  2017.20000
    169.14,  2711.70000,  2022.90000
    169.63,  2713.30000,  2017.90000
    170.12,  2703.50000,  2011.10000
    170.61,  2693.50000,  1997.30000
    171.10,  2748.60000,  1979.50000
    171.59,  2747.30000,  1949.40000
    172.08,  2757.70000,  1937.80000
    172.57,  2755.10000,  1928.00000
    173.06,  2751.20000,  1923.20000
    173.55,  2733.60000,  1926.50000
    174.04,  2721.70000,  1921.80000
    174.53,  2711.40000,  1917.50000
    175.02,  2697.30000,  1934.90000
    175.50,  2727.10000,  1932.60000
    175.99,  2766.70000,  1930.30000
    176.48,  2800.20000,  1930.50000
    176.97,  2784.00000,  1924.50000
    177.46,  2777.80000,  1935.80000
    177.95,  2735.40000,  1953.70000
    178.44,  2716.50000,  1947.60000
    178.93,  2705.20000,  1928.70000
    179.42,  2727.40000,  1909.00000
    179.91,  2748.40000,  1884.80000
    180.40,  2758.70000,  1878.30000
    180.89,  2760.00000,  1885.70000
    181.38,  2747.20000,  1892.50000
    181.87,  2743.80000,  1896.60000
    182.36,  2731.50000,  1909.60000
    182.85,  2700.20000,  1924.80000
    183.34,  2718.50000,  1943.60000
    183.83,  2723.60000,  1958.50000
    184.32,  2724.80000,  1966.90000
    184.81,  2767.60000,  1963.20000
    185.29,  2762.90000,  1940.70000
    185.78,  2735.20000,  1918.70000
    186.27,  2746.10000,  1897.50000
    186.76,  2743.20000,  1872.00000
    187.25,  2725.70000,  1859.30000
    187.74,  2796.20000,  1850.00000
    188.23,  2823.80000,  1841.20000
    188.72,  2839.40000,  1851.30000
    189.21,  2816.00000,  1866.50000
    189.70,  2779.70000,  1874.80000
    190.19,  2740.70000,  1885.20000
    190.67,  2732.70000,  1886.90000
    191.16,  2737.80000,  1879.00000
    191.65,  2745.90000,  1876.80000
    192.14,  2733.20000,  1874.20000
    192.63,  2755.70000,  1866.00000
    193.12,  2767.00000,  1867.40000
    193.61,  2756.00000,  1860.50000
    194.10,  2767.20000,  1867.00000
    194.59,  2758.50000,  1870.30000
    195.07,  2748.50000,  1883.90000
    195.56,  2762.10000,  1881.20000
    196.05,  2750.10000,  1870.50000
    196.54,  2741.30000,  1863.60000
    197.03,  2758.00000,  1869.80000
    197.52,  2798.50000,  1872.90000
    198.01,  2799.80000,  1891.10000
    198.49,  2799.90000,  1891.80000
    198.98,  2794.30000,  1887.30000
    199.47,  2755.60000,  1876.00000
    199.96,  2748.90000,  1864.30000
    200.45,  2764.30000,  1861.80000
    200.94,  2742.40000,  1865.50000
    201.43,  2744.50000,  1864.80000
    201.91,  2737.10000,  1864.60000
    202.40,  2723.30000,  1852.70000
    202.89,  2722.20000,  1847.30000
    203.38,  2744.20000,  1840.80000
    203.87,  2746.60000,  1840.40000
    204.36,  2741.40000,  1837.40000
    204.84,  2744.30000,  1836.40000
    205.33,  2754.90000,  1845.80000
    205.82,  2772.70000,  1844.20000
    206.31,  2775.20000,  1849.60000
    206.80,  2774.30000,  1856.30000
    207.28,  2778.10000,  1869.10000
    207.77,  2779.50000,  1889.00000
    208.26,  2788.20000,  1896.80000
    208.75,  2790.30000,  1894.60000
    209.24,  2767.40000,  1895.70000
    209.72,  2784.40000,  1890.70000
    210.21,  2801.20000,  1887.50000
    210.70,  2784.20000,  1898.00000
    211.19,  2810.50000,  1891.80000
    211.68,  2814.50000,  1905.20000
    212.16,  2809.20000,  1910.40000
    212.65,  2810.50000,  1919.80000
    213.14,  2789.80000,  1930.00000
    213.63,  2776.30000,  1964.00000
    214.12,  2766.50000,  1983.10000
    214.60,  2787.80000,  2015.80000
    215.09,  2810.90000,  2021.50000
    215.58,  2812.70000,  2025.60000
    216.07,  2802.50000,  2035.00000
    216.55,  2796.20000,  2062.20000
    217.04,  2730.30000,  2076.70000
    217.53,  2732.80000,  2098.80000
    218.02,  2739.20000,  2109.70000
    218.50,  2752.40000,  2123.80000
    218.99,  2769.60000,  2155.40000
    219.48,  2782.50000,  2189.70000
    219.97,  2751.10000,  2219.40000
    220.45,  2763.40000,  2249.30000
    220.94,  2756.60000,  2274.20000
    221.43,  2769.90000,  2299.80000
    221.92,  2790.50000,  2333.10000
    222.40,  2786.80000,  2355.50000
    222.89,  2789.40000,  2376.80000
    223.38,  2812.40000,  2410.40000
    223.86,  2830.50000,  2434.50000
    224.35,  2854.80000,  2460.60000
    224.84,  2857.10000,  2484.50000
    225.33,  2845.60000,  2483.70000
    225.81,  2820.90000,  2471.10000
    226.30,  2795.90000,  2472.80000
    226.79,  2790.90000,  2460.10000
    227.27,  2775.20000,  2465.10000
    227.76,  2762.70000,  2482.30000
    228.25,  2787.30000,  2486.30000
    228.74,  2804.90000,  2478.00000
    229.22,  2829.30000,  2466.20000
    229.71,  2834.70000,  2430.70000
    230.20,  2812.50000,  2400.30000
    230.68,  2797.40000,  2368.50000
    231.17,  2782.60000,  2332.70000
    231.66,  2758.70000,  2295.30000
    232.14,  2760.00000,  2257.20000
    232.63,  2752.30000,  2219.80000
    233.12,  2770.50000,  2191.30000
    233.60,  2797.70000,  2150.00000
    234.09,  2781.40000,  2107.10000
    234.58,  2766.90000,  2068.10000
    235.06,  2769.50000,  2038.30000
    235.55,  2765.30000,  2006.50000
    236.04,  2757.00000,  1990.60000
    236.52,  2772.40000,  1961.40000
    237.01,  2752.00000,  1932.90000
    237.50,  2779.20000,  1909.60000
    237.98,  2773.70000,  1901.70000
    238.47,  2836.20000,  1870.90000
    238.96,  2848.90000,  1854.20000
    239.44,  2840.00000,  1835.70000
    239.93,  2835.10000,  1812.10000
    240.41,  2790.60000,  1798.70000
    240.90,  2717.40000,  1802.50000
    241.39,  2741.40000,  1786.80000
    241.87,  2785.20000,  1777.10000
    242.36,  2806.10000,  1773.30000
    242.85,  2851.30000,  1762.00000
    243.33,  2843.80000,  1758.40000
    243.82,  2819.50000,  1755.80000
    244.30,  2792.20000,  1740.30000
    244.79,  2797.20000,  1726.10000
    245.28,  2782.10000,  1729.60000
    245.76,  2778.20000,  1734.30000
    246.25,  2764.20000,  1737.10000
    246.74,  2787.30000,  1734.20000
    247.22,  2807.40000,  1727.20000
    247.71,  2802.90000,  1720.20000
    248.19,  2788.60000,  1720.20000
    248.68,  2789.70000,  1724.40000
    249.16,  2750.90000,  1729.50000
    249.65,  2785.60000,  1719.70000
    250.14,  2796.40000,  1718.10000
    250.62,  2774.80000,  1710.60000
    251.11,  2756.30000,  1691.40000
    251.59,  2746.20000,  1688.30000
    252.08,  2729.10000,  1689.20000
    252.57,  2751.80000,  1680.10000
    253.05,  2756.20000,  1680.70000
    253.54,  2788.80000,  1685.40000
    254.02,  2815.30000,  1683.50000
    254.51,  2827.70000,  1681.40000
    254.99,  2824.10000,  1676.70000
    255.48,  2801.90000,  1672.20000
    255.96,  2770.20000,  1677.80000
    256.45,  2789.50000,  1687.60000
    256.94,  2797.00000,  1684.90000
    257.42,  2791.40000,  1680.00000
    257.91,  2797.80000,  1670.60000
    258.39,  2794.30000,  1672.00000
    258.88,  2773.20000,  1682.80000
    259.36,  2793.60000,  1682.20000
    259.85,  2798.30000,  1671.40000
    260.33,  2810.30000,  1676.00000
    260.82,  2837.20000,  1668.30000
    261.30,  2839.90000,  1679.40000
    261.79,  2812.40000,  1685.10000
    262.27,  2789.80000,  1691.50000
    262.76,  2771.20000,  1688.00000
    263.24,  2775.00000,  1693.70000
    263.73,  2805.10000,  1685.20000
    264.22,  2800.90000,  1696.10000
    264.70,  2868.90000,  1690.60000
    265.19,  2892.20000,  1696.90000
    265.67,  2887.00000,  1703.40000
    266.16,  2858.50000,  1707.10000
    266.64,  2831.00000,  1708.40000
    267.13,  2764.80000,  1716.00000
    267.61,  2768.50000,  1725.00000
    268.10,  2780.00000,  1735.40000
    268.58,  2779.30000,  1739.50000
    269.06,  2781.70000,  1745.20000
    269.55,  2801.60000,  1755.40000
    270.03,  2819.30000,  1757.10000
    270.52,  2816.70000,  1776.80000
    271.00,  2830.90000,  1783.80000
    271.49,  2824.50000,  1779.30000
    271.97,  2819.00000,  1797.50000
    272.46,  2821.20000,  1808.20000
    272.94,  2825.00000,  1806.10000
    273.43,  2818.90000,  1805.50000
    273.91,  2796.00000,  1813.10000
    274.40,  2780.60000,  1824.60000
    274.88,  2770.80000,  1848.90000
    275.37,  2778.30000,  1861.00000
    275.85,  2779.40000,  1873.90000
    276.33,  2782.60000,  1875.30000
    276.82,  2787.30000,  1887.20000
    277.30,  2790.80000,  1903.90000
    277.79,  2790.40000,  1907.50000
    278.27,  2805.00000,  1916.80000
    278.76,  2816.50000,  1921.60000
    279.24,  2832.10000,  1915.10000
    279.73,  2832.80000,  1916.80000
    280.21,  2821.60000,  1925.30000
    280.69,  2799.30000,  1928.80000
    281.18,  2793.40000,  1954.60000
    281.66,  2805.10000,  1963.50000
    282.15,  2846.70000,  1978.80000
    282.63,  2841.10000,  1990.50000
    283.11,  2835.00000,  1994.00000
    283.60,  2831.70000,  1985.60000
    284.08,  2836.20000,  1991.60000
    284.57,  2810.70000,  1990.10000
    285.05,  2808.40000,  1989.70000
    285.53,  2784.50000,  2002.80000
    286.02,  2767.60000,  1997.80000
    286.50,  2783.20000,  1999.40000
    286.99,  2794.90000,  2006.30000
    287.47,  2778.20000,  2013.10000
    287.95,  2769.90000,  2010.50000
    288.44,  2765.50000,  2017.80000
    288.92,  2772.50000,  1998.10000
    289.41,  2788.40000,  1986.30000
    289.89,  2811.80000,  1983.30000
    290.37,  2816.40000,  1978.50000
    290.86,  2841.40000,  1965.80000
    291.34,  2812.40000,  1955.90000
    291.82,  2801.00000,  1942.00000
    292.31,  2779.90000,  1924.70000
    292.79,  2790.90000,  1929.20000
    293.28,  2795.60000,  1919.00000
    293.76,  2814.30000,  1908.90000
    294.24,  2814.70000,  1905.30000
    294.73,  2834.80000,  1897.60000
    295.21,  2827.60000,  1893.30000
    295.69,  2828.40000,  1886.70000
    296.18,  2804.20000,  1865.50000
    296.66,  2765.00000,  1850.10000
    297.14,  2763.80000,  1826.30000
    297.63,  2784.80000,  1804.00000
    298.11,  2799.80000,  1802.30000
    298.59,  2834.50000,  1791.60000
    299.08,  2844.10000,  1780.70000
    299.56,  2836.90000,  1771.50000
    300.04,  2851.40000,  1759.50000
    300.53,  2850.90000,  1752.60000
    301.01,  2846.20000,  1752.20000
    301.49,  2838.90000,  1738.70000
    301.98,  2815.00000,  1721.80000
    302.46,  2789.90000,  1704.30000
    302.94,  2790.50000,  1692.30000
    303.42,  2785.80000,  1683.00000
    303.91,  2771.80000,  1662.00000
    304.39,  2755.70000,  1640.10000
    304.87,  2761.30000,  1623.90000
    305.36,  2784.60000,  1612.60000
    305.84,  2819.60000,  1601.00000
    306.32,  2851.20000,  1608.70000
    306.81,  2838.60000,  1595.40000
    307.29,  2810.00000,  1584.40000
    307.77,  2804.30000,  1566.80000
    308.25,  2809.70000,  1552.80000
    308.74,  2823.90000,  1537.70000
    309.22,  2810.90000,  1533.10000
    309.70,  2793.60000,  1524.40000
    310.18,  2778.30000,  1509.90000
    310.67,  2791.90000,  1495.80000
    311.15,  2808.60000,  1493.60000
    311.63,  2827.70000,  1491.70000
    312.12,  2836.70000,  1477.90000
    312.60,  2812.70000,  1481.90000
    313.08,  2789.00000,  1476.60000
    313.56,  2779.90000,  1476.10000
    314.05,  2770.00000,  1478.50000
    314.53,  2789.40000,  1463.70000
    315.01,  2849.60000,  1440.70000
    315.49,  2845.50000,  1425.50000
    315.98,  2841.20000,  1428.00000
    316.46,  2812.80000,  1435.30000
    316.94,  2762.90000,  1450.10000
    317.42,  2747.60000,  1447.60000
    317.90,  2761.30000,  1437.60000
    318.39,  2749.70000,  1414.40000
    318.87,  2805.50000,  1406.10000
    319.35,  2832.10000,  1388.80000
    319.83,  2842.70000,  1386.60000
    320.32,  2849.90000,  1398.90000
    320.80,  2855.20000,  1412.80000
    321.28,  2812.60000,  1411.70000
    321.76,  2844.60000,  1406.80000
    322.24,  2845.10000,  1388.20000
    322.73,  2860.90000,  1373.30000
    323.21,  2857.80000,  1382.40000
    323.69,  2864.90000,  1379.20000
    324.17,  2814.60000,  1376.40000
    324.65,  2778.60000,  1381.60000
    325.14,  2782.10000,  1380.50000
    325.62,  2793.50000,  1376.00000
    326.10,  2842.50000,  1375.10000
    326.58,  2871.10000,  1360.90000
    327.06,  2831.30000,  1362.90000
    327.55,  2835.00000,  1365.10000
    328.03,  2860.70000,  1365.00000
    328.51,  2865.40000,  1363.20000
    328.99,  2883.20000,  1359.40000
    329.47,  2870.30000,  1365.30000
    329.95,  2796.00000,  1376.60000
    330.44,  2793.60000,  1385.80000
    330.92,  2768.70000,  1387.50000
    331.40,  2757.80000,  1388.40000
    331.88,  2747.80000,  1397.60000
    332.36,  2763.70000,  1395.60000
    332.84,  2786.50000,  1390.80000
    333.33,  2828.50000,  1377.30000
    333.81,  2835.50000,  1364.10000
    334.29,  2848.00000,  1353.70000
    334.77,  2836.20000,  1361.50000
    335.25,  2827.70000,  1352.40000
    335.73,  2842.60000,  1348.70000
    336.21,  2839.20000,  1343.60000
    336.69,  2819.10000,  1348.90000
    337.18,  2810.10000,  1336.80000
    337.66,  2781.60000,  1335.60000
    338.14,  2766.80000,  1325.90000
    338.62,  2767.50000,  1312.20000
    339.10,  2791.00000,  1313.80000
    339.58,  2831.40000,  1320.20000
    340.06,  2843.60000,  1322.90000
    340.54,  2845.80000,  1327.90000
    341.03,  2833.70000,  1328.10000
    341.51,  2807.30000,  1315.70000
    341.99,  2804.90000,  1314.60000
    342.47,  2816.00000,  1310.10000
    342.95,  2809.60000,  1316.20000
    343.43,  2808.50000,  1310.10000
    343.91,  2804.00000,  1314.10000
    344.39,  2779.00000,  1313.50000
    344.87,  2766.70000,  1301.90000
    345.35,  2785.40000,  1296.90000
    345.84,  2799.90000,  1299.20000
    346.32,  2849.90000,  1295.90000
    346.80,  2862.00000,  1308.80000
    347.28,  2855.20000,  1311.60000
    347.76,  2825.90000,  1302.40000
    348.24,  2820.30000,  1305.60000
    348.72,  2838.80000,  1295.00000
    349.20,  2868.40000,  1284.50000
    349.68,  2849.30000,  1287.70000
    350.16,  2822.70000,  1287.10000
    350.64,  2783.80000,  1290.00000
    351.12,  2771.50000,  1296.10000
    351.60,  2829.40000,  1284.60000
    352.08,  2874.10000,  1282.40000
    352.56,  2888.10000,  1293.50000
    353.04,  2878.00000,  1296.20000
    353.53,  2856.00000,  1302.10000
    354.01,  2828.20000,  1307.50000
    354.49,  2841.80000,  1304.50000
    354.97,  2835.10000,  1308.80000
    355.45,  2834.20000,  1308.80000
    355.93,  2808.60000,  1302.10000
    356.41,  2817.20000,  1311.10000
    356.89,  2805.10000,  1313.00000
    357.37,  2821.50000,  1310.60000
    357.85,  2802.20000,  1313.10000
    358.33,  2796.70000,  1309.50000
    358.81,  2769.80000,  1307.70000
    359.29,  2777.40000,  1312.90000
    359.77,  2796.10000,  1307.50000
    360.25,  2825.00000,  1296.60000
    360.73,  2827.20000,  1295.10000
    361.21,  2818.50000,  1302.30000
    361.69,  2822.90000,  1313.10000
    362.17,  2821.70000,  1320.20000
    362.65,  2834.60000,  1319.60000
    363.13,  2833.90000,  1315.10000
    363.61,  2842.20000,  1309.90000
    364.09,  2813.00000,  1314.80000
    364.57,  2806.40000,  1320.20000
    365.05,  2814.30000,  1316.70000
    365.53,  2802.60000,  1311.90000
    366.01,  2818.30000,  1308.10000
    366.49,  2859.30000,  1300.60000
    366.97,  2820.10000,  1296.50000
    367.45,  2821.70000,  1308.10000
    367.93,  2852.50000,  1310.60000
    368.41,  2841.80000,  1313.90000
    368.89,  2848.80000,  1312.20000
    369.37,  2854.50000,  1314.10000
    369.85,  2799.10000,  1311.80000
    370.33,  2810.30000,  1322.00000
    370.80,  2833.50000,  1317.00000
    371.28,  2839.00000,  1321.60000
    371.76,  2818.70000,  1323.90000
    372.24,  2797.50000,  1339.50000
    372.72,  2792.30000,  1344.50000
    373.20,  2803.40000,  1353.30000
    373.68,  2831.50000,  1353.00000
    374.16,  2853.80000,  1355.20000
    374.64,  2827.80000,  1349.80000
    375.12,  2801.40000,  1349.70000
    375.60,  2829.70000,  1356.20000
    376.08,  2803.60000,  1363.00000
    376.56,  2804.40000,  1359.00000
    377.04,  2802.50000,  1360.30000
    377.52,  2803.70000,  1362.60000
    377.99,  2799.60000,  1366.70000
    378.47,  2827.80000,  1376.90000
    378.95,  2815.70000,  1370.00000
    379.43,  2833.00000,  1360.80000
    379.91,  2834.20000,  1359.60000
    380.39,  2876.70000,  1373.20000
    380.87,  2895.90000,  1384.30000
    381.35,  2885.50000,  1388.50000
    381.83,  2860.40000,  1382.80000
    382.31,  2825.40000,  1373.00000
    382.79,  2787.70000,  1364.00000
    383.26,  2801.30000,  1373.20000
    383.74,  2807.60000,  1376.70000
    384.22,  2804.00000,  1378.60000
    384.70,  2805.60000,  1390.30000
    385.18,  2778.80000,  1393.00000
    385.66,  2784.20000,  1397.00000
    386.14,  2795.40000,  1399.10000
    386.62,  2817.20000,  1400.40000
    387.09,  2839.00000,  1393.30000
    387.57,  2842.80000,  1406.60000
    388.05,  2830.70000,  1407.90000
    388.53,  2827.60000,  1398.10000
    389.01,  2830.20000,  1392.40000
    389.49,  2854.20000,  1391.00000
    389.97,  2858.40000,  1398.60000
    390.44,  2840.50000,  1416.30000
    390.92,  2818.90000,  1423.80000
    391.40,  2802.60000,  1410.80000
    391.88,  2802.00000,  1409.90000
    392.36,  2815.40000,  1397.30000
    392.84,  2823.60000,  1407.30000
    393.32,  2832.80000,  1412.00000
    393.79,  2828.50000,  1415.90000
    394.27,  2879.90000,  1415.30000
    394.75,  2878.00000,  1427.60000
    395.23,  2868.20000,  1425.30000
    395.71,  2847.10000,  1422.80000
    396.18,  2843.40000,  1412.70000
    396.66,  2851.30000,  1408.20000
    397.14,  2884.00000,  1416.60000
    397.62,  2850.00000,  1422.30000
    398.10,  2837.10000,  1430.10000
    398.58,  2826.70000,  1418.90000
    399.05,  2847.30000,  1411.50000
    399.53,  2867.00000,  1404.30000
    400.01,  2861.50000,  1410.60000
    400.49,  2830.70000,  1411.70000
    400.97,  2799.30000,  1422.30000
    401.44,  2760.50000,  1427.60000
    401.92,  2784.20000,  1427.10000
    402.40,  2787.80000,  1419.10000
    402.88,  2812.40000,  1431.30000
    403.36,  2823.60000,  1438.60000
    403.83,  2846.00000,  1424.70000
    404.31,  2816.00000,  1418.60000
    404.79,  2831.40000,  1398.00000
    405.27,  2811.10000,  1387.80000
    405.74,  2794.80000,  1393.60000
    406.22,  2812.50000,  1403.30000
    406.70,  2844.60000,  1393.50000
    407.18,  2832.20000,  1396.40000
    407.65,  2824.10000,  1392.70000
    408.13,  2792.70000,  1387.10000
    408.61,  2792.50000,  1383.00000
    409.09,  2797.80000,  1388.20000
    409.56,  2805.00000,  1381.80000
    410.04,  2813.00000,  1385.00000
    410.52,  2815.40000,  1380.10000
    411.00,  2797.50000,  1364.80000
    411.47,  2804.90000,  1356.70000
    411.95,  2785.10000,  1355.80000
    412.43,  2786.40000,  1356.00000
    412.91,  2780.90000,  1362.30000
    413.38,  2800.60000,  1360.10000
    413.86,  2812.40000,  1362.30000
    414.34,  2821.30000,  1353.20000
    414.82,  2823.90000,  1350.60000
    415.29,  2825.40000,  1342.00000
    415.77,  2832.90000,  1329.30000
    416.25,  2834.00000,  1316.40000
    416.72,  2827.60000,  1317.80000
    417.20,  2816.40000,  1308.00000
    417.68,  2779.50000,  1310.70000
    418.16,  2778.30000,  1306.30000
    418.63,  2808.70000,  1306.00000
    419.11,  2808.10000,  1312.80000
    419.59,  2816.10000,  1312.80000
    420.06,  2789.10000,  1312.20000
    420.54,  2753.20000,  1308.80000
    421.02,  2769.70000,  1305.90000
    421.50,  2797.00000,  1297.10000
    421.97,  2804.30000,  1296.20000
    422.45,  2802.40000,  1283.70000
    422.93,  2794.30000,  1279.70000
    423.40,  2777.00000,  1278.40000
    423.88,  2778.60000,  1282.40000
    424.36,  2786.90000,  1276.00000
    424.83,  2805.30000,  1269.20000
    425.31,  2821.00000,  1271.20000
    425.79,  2871.40000,  1272.70000
    426.26,  2910.30000,  1273.60000
    426.74,  2886.20000,  1276.70000
    427.22,  2860.60000,  1279.30000
    427.69,  2845.20000,  1271.90000
    428.17,  2817.00000,  1271.70000
    428.65,  2803.20000,  1263.10000
    429.12,  2839.50000,  1264.50000
    429.60,  2823.40000,  1260.10000
    430.08,  2833.70000,  1261.10000
    430.55,  2845.60000,  1255.10000
    431.03,  2845.00000,  1250.90000
    431.50,  2830.70000,  1256.10000
    431.98,  2825.50000,  1267.70000
    432.46,  2828.90000,  1260.60000
    432.93,  2809.80000,  1252.10000
    433.41,  2791.30000,  1251.10000
    433.89,  2784.00000,  1254.70000
    434.36,  2783.30000,  1258.80000
    434.84,  2787.00000,  1247.00000
    435.31,  2814.60000,  1231.10000
    435.79,  2813.30000,  1226.80000
    436.27,  2803.20000,  1242.20000
    436.74,  2794.00000,  1259.30000
    437.22,  2802.90000,  1262.20000
    437.70,  2807.10000,  1255.30000
    438.17,  2806.90000,  1247.80000
    438.65,  2807.30000,  1240.10000
    439.12,  2813.00000,  1235.20000
    439.60,  2806.90000,  1235.50000
    440.08,  2819.40000,  1234.30000
    440.55,  2809.10000,  1238.10000
    441.03,  2818.00000,  1253.50000
    441.50,  2820.10000,  1248.90000
    441.98,  2832.70000,  1236.90000
    442.45,  2822.20000,  1222.50000
    442.93,  2820.30000,  1214.50000
    443.41,  2805.60000,  1217.20000
    443.88,  2808.70000,  1234.40000
    444.36,  2801.70000,  1231.20000
    444.83,  2798.50000,  1242.60000
    445.31,  2799.40000,  1242.10000
    445.78,  2776.30000,  1251.90000
    446.26,  2774.80000,  1253.90000
    446.74,  2776.70000,  1255.30000
    447.21,  2801.20000,  1241.60000
    447.69,  2824.90000,  1238.00000
    448.16,  2848.50000,  1230.70000
    448.64,  2826.10000,  1228.00000
    449.11,  2810.90000,  1221.20000
    449.59,  2808.70000,  1233.00000
    450.06,  2807.30000,  1244.00000
    450.54,  2804.30000,  1247.40000
    451.02,  2829.10000,  1250.70000
    451.49,  2834.50000,  1243.40000
    451.97,  2838.90000,  1231.90000
    452.44,  2831.00000,  1232.20000
    452.92,  2815.10000,  1238.20000
    453.39,  2792.50000,  1235.60000
    453.87,  2806.00000,  1241.60000
    454.34,  2811.90000,  1237.50000
    454.82,  2822.50000,  1231.50000
    455.29,  2830.90000,  1229.30000
    455.77,  2833.90000,  1240.20000
    456.24,  2799.60000,  1250.70000
    456.72,  2781.60000,  1251.40000
    457.19,  2773.90000,  1248.30000
    457.67,  2782.80000,  1244.20000
    458.14,  2810.20000,  1244.30000
    458.62,  2813.60000,  1255.10000
    459.09,  2806.30000,  1256.70000
    459.57,  2792.20000,  1237.80000
    460.04,  2801.30000,  1240.90000
    460.52,  2806.00000,  1235.20000
    460.99,  2798.80000,  1238.10000
    461.47,  2790.20000,  1242.40000
    461.94,  2771.20000,  1233.80000
    462.42,  2763.90000,  1231.50000
    462.89,  2784.50000,  1231.80000
    463.37,  2805.50000,  1234.70000
    463.84,  2816.30000,  1232.70000
    464.32,  2824.50000,  1234.60000
    464.79,  2822.70000,  1227.10000
    465.26,  2823.90000,  1228.80000
    465.74,  2806.70000,  1224.70000
    466.21,  2819.80000,  1238.90000
    466.69,  2828.60000,  1234.40000
    467.16,  2826.90000,  1240.10000
    467.64,  2805.90000,  1242.10000
    468.11,  2792.90000,  1243.00000
    468.59,  2790.30000,  1243.20000
    469.06,  2808.00000,  1249.70000
    469.54,  2841.50000,  1242.40000
    470.01,  2844.40000,  1234.50000
    470.48,  2797.50000,  1229.00000
    470.96,  2815.60000,  1224.00000
    471.43,  2838.60000,  1229.50000
    471.91,  2850.40000,  1241.40000
    472.38,  2880.60000,  1248.70000
    472.86,  2853.90000,  1250.00000
    473.33,  2799.90000,  1246.20000
    473.80,  2798.00000,  1246.00000
    474.28,  2802.70000,  1245.60000
    474.75,  2813.00000,  1241.40000
    475.23,  2847.10000,  1244.90000
    475.70,  2847.90000,  1249.30000
    476.17,  2823.60000,  1248.50000
    476.65,  2819.10000,  1253.40000
    477.12,  2820.00000,  1248.60000
    477.60,  2787.20000,  1241.20000
    478.07,  2791.20000,  1237.70000
    478.54,  2804.40000,  1240.90000
    479.02,  2811.50000,  1241.80000
    479.49,  2840.50000,  1247.30000
    479.97,  2846.10000,  1251.70000
    480.44,  2831.60000,  1249.10000
    480.91,  2803.40000,  1241.80000
    481.39,  2786.70000,  1246.00000
    481.86,  2790.40000,  1238.80000
    482.34,  2779.40000,  1236.10000
    482.81,  2794.30000,  1236.30000
    483.28,  2824.30000,  1233.00000
    483.76,  2802.50000,  1245.00000
    484.23,  2812.40000,  1252.30000
    484.70,  2803.30000,  1247.40000
    485.18,  2807.10000,  1234.20000
    485.65,  2814.80000,  1232.30000
    486.12,  2825.90000,  1233.20000
    486.60,  2804.60000,  1238.40000
    487.07,  2812.80000,  1235.90000
    487.55,  2835.90000,  1227.30000
    488.02,  2861.00000,  1227.10000
    488.49,  2850.10000,  1238.00000
    488.97,  2856.40000,  1246.70000
    489.44,  2845.20000,  1235.30000
    489.91,  2818.30000,  1220.70000
    490.39,  2811.60000,  1219.00000
    490.86,  2770.90000,  1232.50000
    491.33,  2736.10000,  1238.00000
    491.81,  2772.50000,  1244.80000
    492.28,  2816.10000,  1241.50000
    492.75,  2817.70000,  1233.70000
    493.23,  2855.40000,  1243.50000
    493.70,  2867.00000,  1238.10000
    494.17,  2859.70000,  1230.40000
    494.64,  2859.00000,  1219.40000
    495.12,  2828.80000,  1222.10000
    495.59,  2833.80000,  1224.50000
    496.06,  2863.60000,  1233.20000
    496.54,  2879.00000,  1231.70000
    497.01,  2860.40000,  1235.70000
    497.48,  2843.30000,  1236.40000
    497.96,  2817.00000,  1241.20000
    498.43,  2849.30000,  1237.30000
    498.90,  2847.30000,  1230.40000
    499.37,  2868.20000,  1225.70000
    499.85,  2838.20000,  1221.40000
    500.32,  2827.80000,  1233.60000
    500.79,  2807.20000,  1237.20000
    501.27,  2812.70000,  1239.10000
    501.74,  2803.50000,  1237.60000
    502.21,  2810.60000,  1232.60000
    502.68,  2799.50000,  1225.00000
    503.16,  2791.50000,  1228.70000
    503.63,  2783.50000,  1223.90000
    504.10,  2796.00000,  1222.60000
    504.57,  2786.30000,  1220.20000
    505.05,  2805.10000,  1215.80000
    505.52,  2824.00000,  1218.40000
    505.99,  2823.20000,  1218.30000
    506.46,  2820.00000,  1224.80000
    506.94,  2809.50000,  1225.10000
    507.41,  2794.80000,  1224.70000
    507.88,  2801.70000,  1217.60000
    508.35,  2800.40000,  1213.00000
    508.83,  2791.00000,  1203.10000
    509.30,  2815.90000,  1211.10000
    509.77,  2819.60000,  1214.80000
    510.24,  2819.80000,  1213.90000
    510.72,  2800.40000,  1215.10000
    511.19,  2787.50000,  1212.30000
    511.66,  2781.00000,  1208.30000
    512.13,  2813.10000,  1206.60000
    512.60,  2811.00000,  1210.20000
    513.08,  2807.80000,  1206.80000
    513.55,  2801.80000,  1206.00000
    514.02,  2782.20000,  1206.20000
    514.49,  2774.70000,  1208.60000
    514.97,  2780.80000,  1213.80000
    515.44,  2795.90000,  1218.70000
    515.91,  2789.30000,  1218.10000
    516.38,  2798.00000,  1213.50000
    516.85,  2767.30000,  1214.70000
    517.33,  2755.60000,  1209.20000
    517.80,  2756.00000,  1207.90000
    518.27,  2783.60000,  1198.90000
    518.74,  2818.20000,  1204.00000
    519.21,  2841.50000,  1205.20000
    519.68,  2819.60000,  1212.00000
    520.16,  2795.40000,  1212.50000
    520.63,  2777.10000,  1215.70000
    521.10,  2771.10000,  1208.90000
    521.57,  2801.20000,  1204.50000
    522.04,  2803.80000,  1199.70000
    522.52,  2801.70000,  1195.60000
    522.99,  2793.70000,  1188.80000
    523.46,  2806.00000,  1195.60000
    523.93,  2814.70000,  1199.50000
    524.40,  2843.40000,  1199.70000
    524.87,  2830.20000,  1207.80000
    525.34,  2815.80000,  1206.60000
    525.82,  2807.50000,  1192.50000
    526.29,  2809.40000,  1190.60000
    526.76,  2806.00000,  1196.70000
    527.23,  2818.90000,  1201.00000
    527.70,  2802.40000,  1202.80000
    528.17,  2799.50000,  1206.50000
    528.64,  2799.10000,  1205.30000
    529.12,  2799.90000,  1208.60000
    529.59,  2799.50000,  1212.10000
    530.06,  2811.80000,  1201.80000
    530.53,  2849.10000,  1200.80000
    531.00,  2823.80000,  1209.10000
    531.47,  2771.20000,  1222.00000
    531.94,  2756.70000,  1229.70000
    532.41,  2748.30000,  1233.60000
    532.89,  2775.40000,  1232.30000
    533.36,  2837.80000,  1232.50000
    533.83,  2830.20000,  1221.90000
    534.30,  2811.80000,  1219.80000
    534.77,  2827.90000,  1214.40000
    535.24,  2834.30000,  1215.70000
    535.71,  2825.50000,  1229.90000
    536.18,  2826.00000,  1247.20000
    536.65,  2821.70000,  1249.20000
    537.13,  2796.40000,  1259.20000
    537.60,  2779.60000,  1255.40000
    538.07,  2790.50000,  1245.60000
    538.54,  2780.20000,  1235.80000
    539.01,  2793.70000,  1242.20000
    539.48,  2827.80000,  1245.60000
    539.95,  2835.30000,  1262.50000
    540.42,  2830.00000,  1282.20000
    540.89,  2820.10000,  1281.20000
    541.36,  2805.70000,  1273.80000
    541.83,  2804.20000,  1272.00000
    542.30,  2807.30000,  1272.10000
    542.77,  2817.20000,  1279.60000
    543.25,  2830.00000,  1293.10000
    543.72,  2830.00000,  1286.60000
    544.19,  2829.90000,  1290.00000
    544.66,  2808.40000,  1289.10000
    545.13,  2790.90000,  1295.90000
    545.60,  2779.30000,  1286.80000
    546.07,  2803.00000,  1289.90000
    546.54,  2810.40000,  1305.40000
    547.01,  2822.80000,  1311.50000
    547.48,  2822.90000,  1316.50000
    547.95,  2809.70000,  1320.60000
    548.42,  2791.50000,  1312.70000
    548.89,  2824.00000,  1320.90000
    549.36,  2808.70000,  1346.30000
    549.83,  2802.90000,  1338.30000
    550.30,  2846.90000,  1342.00000
    550.77,  2843.20000,  1337.40000
    551.24,  2839.90000,  1351.10000
    551.71,  2854.70000,  1354.00000
    552.18,  2824.60000,  1355.80000
    552.65,  2781.00000,  1343.20000
    553.12,  2811.60000,  1344.10000
    553.59,  2819.50000,  1346.90000
    554.06,  2824.70000,  1361.40000
    554.53,  2836.50000,  1365.20000
    555.00,  2823.40000,  1355.60000
    555.47,  2803.60000,  1360.20000
    555.94,  2788.20000,  1372.20000
    556.41,  2833.90000,  1329.90000
    556.88,  2873.00000,  1280.10000
    557.35,  2895.30000,  1269.50000
    557.82,  2875.00000,  1276.10000
    558.29,  2838.70000,  1326.20000
    558.76,  2820.10000,  1391.70000
    559.23,  2831.00000,  1393.00000
    559.70,  2841.40000,  1389.30000
    560.17,  2829.90000,  1392.00000
    560.64,  2825.00000,  1388.50000
    561.11,  2805.10000,  1394.40000
    561.58,  2825.80000,  1410.70000
    562.05,  2808.00000,  1398.70000
    562.52,  2811.30000,  1401.00000
    562.99,  2802.00000,  1395.90000
    563.46,  2815.30000,  1404.10000
    563.93,  2804.60000,  1409.80000
    564.40,  2815.50000,  1409.80000
    564.87,  2822.20000,  1399.40000
    565.34,  2843.10000,  1404.50000
    565.81,  2830.90000,  1405.80000
    566.28,  2830.20000,  1417.60000
    566.74,  2808.30000,  1410.60000
    567.21,  2800.50000,  1390.70000
    567.68,  2814.40000,  1390.10000
    568.15,  2803.30000,  1387.60000
    568.62,  2798.80000,  1382.20000
    569.09,  2793.80000,  1392.00000
    569.56,  2784.90000,  1393.80000
    570.03,  2786.00000,  1391.00000
    570.50,  2825.50000,  1406.90000
    570.97,  2822.10000,  1413.60000
    571.44,  2822.40000,  1409.70000
    571.91,  2815.60000,  1420.70000
    572.38,  2805.10000,  1429.20000
    572.84,  2787.20000,  1426.50000
    573.31,  2805.40000,  1425.10000
    573.78,  2807.50000,  1425.60000
    574.25,  2799.70000,  1413.30000
    574.72,  2810.30000,  1412.60000
    575.19,  2807.10000,  1413.50000
    575.66,  2801.70000,  1407.70000
    576.13,  2802.20000,  1396.90000
    576.60,  2809.70000,  1403.90000
    577.07,  2829.50000,  1407.80000
    577.53,  2854.50000,  1404.30000
    578.00,  2844.90000,  1410.20000
    578.47,  2840.20000,  1397.90000
    578.94,  2814.80000,  1391.30000
    579.41,  2785.00000,  1393.60000
    579.88,  2796.20000,  1404.90000
    580.35,  2803.60000,  1401.60000
    580.82,  2805.60000,  1416.40000
    581.28,  2832.90000,  1408.80000
    581.75,  2836.90000,  1403.30000
    582.22,  2831.90000,  1393.10000
    582.69,  2834.20000,  1394.00000
    583.16,  2824.50000,  1390.60000
    583.63,  2810.10000,  1395.10000
    584.10,  2833.50000,  1396.50000
    584.56,  2849.10000,  1391.00000
    585.03,  2844.20000,  1390.50000
    585.50,  2828.30000,  1394.70000
    585.97,  2793.60000,  1400.00000
    586.44,  2781.40000,  1405.80000
    586.91,  2805.60000,  1407.60000
    587.37,  2813.80000,  1401.00000
    587.84,  2808.90000,  1383.90000
    588.31,  2787.50000,  1378.80000
    588.78,  2755.10000,  1377.50000
    589.25,  2784.40000,  1384.50000
    589.72,  2789.30000,  1384.60000
    590.18,  2819.80000,  1391.30000
    590.65,  2849.00000,  1379.40000
    591.12,  2829.10000,  1382.30000
    591.59,  2827.80000,  1377.60000
    592.06,  2815.00000,  1375.90000
    592.52,  2772.70000,  1369.60000
    592.99,  2786.80000,  1379.10000
    593.46,  2785.70000,  1373.30000
    593.93,  2742.20000,  1379.00000
    594.40,  2774.40000,  1374.10000
    594.86,  2801.20000,  1375.50000
    595.33,  2807.40000,  1382.80000
    595.80,  2823.10000,  1395.90000
    596.27,  2828.00000,  1391.40000
    596.74,  2798.30000,  1390.80000
    597.20,  2796.80000,  1378.70000
    597.67,  2816.70000,  1367.30000
    598.14,  2796.80000,  1363.90000
    598.61,  2793.90000,  1359.20000
    599.07,  2800.40000,  1358.60000
    599.54,  2781.30000,  1361.30000
    600.01,  2765.00000,  1366.80000
    600.48,  2829.50000,  1356.90000
    600.95,  2855.00000,  1358.10000
    601.41,  2865.90000,  1356.80000
    601.88,  2849.90000,  1353.90000
    602.35,  2789.20000,  1356.90000
    602.82,  2733.50000,  1362.10000
    603.28,  2760.20000,  1349.30000
    603.75,  2757.40000,  1348.20000
    604.22,  2783.80000,  1353.00000
    604.69,  2799.90000,  1339.50000
    605.15,  2813.30000,  1337.90000
    605.62,  2803.30000,  1336.60000
    606.09,  2794.20000,  1347.10000
    606.56,  2766.80000,  1348.30000
    607.02,  2770.50000,  1356.30000
    607.49,  2772.40000,  1344.30000
    607.96,  2803.00000,  1332.20000
    608.42,  2803.60000,  1322.00000
    608.89,  2850.70000,  1321.30000
    609.36,  2858.80000,  1315.70000
    609.83,  2838.70000,  1317.90000
    610.29,  2809.00000,  1308.10000
    610.76,  2779.50000,  1304.30000
    611.23,  2772.30000,  1300.40000
    611.69,  2808.30000,  1295.00000
    612.16,  2818.80000,  1290.50000
    612.63,  2812.70000,  1291.10000
    613.10,  2798.70000,  1288.70000
    613.56,  2773.30000,  1287.60000
    614.03,  2785.30000,  1281.40000
    614.50,  2793.50000,  1278.30000
    614.96,  2806.00000,  1275.70000
    615.43,  2809.50000,  1279.70000
    615.90,  2819.50000,  1285.70000
    616.36,  2813.00000,  1286.90000
    616.83,  2797.20000,  1282.50000
    617.30,  2792.80000,  1279.00000
    617.76,  2773.70000,  1270.60000
    618.23,  2760.60000,  1258.60000
    618.70,  2759.10000,  1253.50000
    619.16,  2774.40000,  1251.70000
    619.63,  2770.30000,  1250.60000
    620.10,  2770.80000,  1250.70000
    620.56,  2772.40000,  1243.90000
    621.03,  2795.50000,  1239.30000
    621.50,  2800.60000,  1243.10000
    621.96,  2809.10000,  1243.60000
    622.43,  2805.10000,  1238.60000
    622.90,  2805.90000,  1234.40000
    623.36,  2817.40000,  1230.60000
    623.83,  2824.70000,  1228.40000
    624.30,  2810.00000,  1230.20000
    624.76,  2807.60000,  1228.90000
    625.23,  2812.20000,  1223.60000
    625.70,  2824.30000,  1221.60000
    626.16,  2830.70000,  1213.00000
    626.63,  2804.20000,  1202.60000
    627.09,  2793.20000,  1199.10000
    627.56,  2803.10000,  1198.70000
    628.03,  2796.60000,  1200.30000
    628.49,  2803.10000,  1201.40000
    628.96,  2784.10000,  1202.10000
    629.43,  2784.20000,  1189.70000
    629.89,  2781.10000,  1189.90000
    630.36,  2793.50000,  1187.10000
    630.82,  2784.30000,  1189.40000
    631.29,  2787.20000,  1184.90000
    631.76,  2765.10000,  1191.60000
    632.22,  2759.80000,  1177.60000
    632.69,  2764.30000,  1173.60000
    633.15,  2790.70000,  1168.20000
    633.62,  2818.20000,  1171.00000
    634.09,  2830.60000,  1179.40000
    634.55,  2827.00000,  1184.40000
    635.02,  2796.00000,  1183.20000
    635.48,  2787.70000,  1174.20000
    635.95,  2779.30000,  1167.50000
    636.42,  2786.50000,  1159.40000
    636.88,  2778.30000,  1160.20000
    637.35,  2781.00000,  1149.20000
    637.81,  2794.80000,  1151.10000
    638.28,  2803.30000,  1153.60000
    638.74,  2813.30000,  1154.20000
    639.21,  2815.50000,  1158.80000
    639.68,  2786.70000,  1164.30000
    640.14,  2757.80000,  1157.40000
    640.61,  2773.30000,  1151.70000
    641.07,  2760.10000,  1150.80000
    641.54,  2787.20000,  1139.20000
    642.00,  2803.40000,  1144.20000
    642.47,  2815.60000,  1139.90000
    642.93,  2811.50000,  1126.40000
    643.40,  2809.70000,  1119.80000
    643.87,  2789.20000,  1127.70000
    644.33,  2789.70000,  1127.00000
    644.80,  2791.60000,  1135.80000
    645.26,  2780.90000,  1134.20000
    645.73,  2774.30000,  1127.80000
    646.19,  2772.40000,  1120.90000
    646.66,  2775.90000,  1126.60000
    647.12,  2772.30000,  1116.90000
    647.59,  2781.00000,  1114.30000
    648.05,  2782.80000,  1121.60000
    648.52,  2773.10000,  1121.90000
    648.98,  2773.00000,  1116.90000
    649.45,  2764.20000,  1116.70000
    649.91,  2748.90000,  1111.60000
    650.38,  2748.30000,  1115.40000
    650.84,  2791.90000,  1126.10000
    651.31,  2784.50000,  1125.00000
    651.77,  2791.10000,  1115.60000
    652.24,  2769.30000,  1106.00000
    652.70,  2748.80000,  1103.20000
    653.17,  2732.90000,  1103.10000
    653.63,  2765.20000,  1097.40000
    654.10,  2763.10000,  1107.10000
    654.56,  2780.60000,  1114.60000
    655.03,  2780.30000,  1122.40000
    655.49,  2793.50000,  1117.90000
    655.96,  2787.30000,  1110.90000
    656.42,  2772.70000,  1096.20000
    656.89,  2760.70000,  1101.90000
    657.35,  2806.90000,  1098.40000
    657.82,  2853.30000,  1096.30000
    658.28,  2889.70000,  1081.80000
    658.75,  2897.10000,  1087.30000
    659.21,  2848.70000,  1093.50000
    659.68,  2825.00000,  1084.70000
    660.14,  2825.80000,  1070.50000
    660.61,  2789.70000,  1068.10000
    661.07,  2818.80000,  1061.50000
    661.53,  2834.10000,  1061.60000
    662.00,  2851.10000,  1059.20000
    662.46,  2848.40000,  1048.10000
    662.93,  2834.50000,  1042.80000
    663.39,  2793.30000,  1047.60000
    663.86,  2813.80000,  1057.70000
    664.32,  2816.80000,  1053.30000
    664.79,  2839.50000,  1052.40000
    665.25,  2820.90000,  1052.90000
    665.71,  2801.10000,  1047.00000
    666.18,  2766.40000,  1046.90000
    666.64,  2784.30000,  1051.10000
    667.11,  2786.00000,  1049.00000
    667.57,  2801.90000,  1043.00000
    668.04,  2811.90000,  1046.20000
    668.50,  2801.10000,  1034.90000
    668.96,  2786.00000,  1025.30000
    669.43,  2815.10000,  1019.30000
    669.89,  2792.80000,  1015.80000
    670.36,  2778.40000,  1007.50000
    670.82,  2774.90000,  1024.30000
    671.28,  2778.90000,  1024.10000
    671.75,  2785.90000,  1022.70000
    672.21,  2811.10000,  1031.20000
    672.68,  2811.00000,  1024.90000
    673.14,  2827.10000,  1011.90000
    673.60,  2844.10000,  1010.70000
    674.07,  2824.20000,  1009.60000
    674.53,  2789.10000,  1010.20000
    675.00,  2774.70000,  1011.10000
    675.46,  2760.80000,  1010.80000
    675.92,  2766.60000,   998.50000
    676.39,  2807.40000,   995.30000
    676.85,  2810.20000,   992.20000
    677.31,  2816.30000,   989.40000
    677.78,  2823.10000,   979.80000
    678.24,  2804.60000,   985.60000
    678.70,  2787.50000,   980.70000
    679.17,  2773.00000,   986.10000
    679.63,  2742.40000,   986.60000
    680.10,  2743.10000,   982.10000
    680.56,  2763.00000,   989.20000
    681.02,  2766.50000,   986.00000
    681.49,  2798.80000,   980.90000
    681.95,  2798.00000,   975.30000
    682.41,  2784.80000,   969.40000
    682.88,  2782.50000,   953.50000
    683.34,  2777.40000,   964.60000
    683.80,  2762.30000,   954.60000
    684.27,  2777.70000,   960.00000
    684.73,  2781.80000,   964.60000
    685.19,  2802.80000,   963.90000
    685.66,  2831.00000,   957.40000
    686.12,  2822.30000,   966.20000
    686.58,  2831.80000,   960.70000
    687.05,  2821.60000,   968.50000
    687.51,  2801.70000,   965.60000
    687.97,  2799.80000,   950.70000
    688.44,  2808.60000,   940.30000
    688.90,  2802.90000,   941.40000
    689.36,  2810.40000,   936.20000
    689.83,  2812.60000,   940.20000
    690.29,  2816.70000,   936.20000
    690.75,  2832.40000,   928.30000
    691.21,  2842.30000,   931.60000
    691.68,  2821.00000,   944.20000
    692.14,  2791.50000,   950.70000
    692.60,  2796.10000,   953.80000
    693.07,  2780.60000,   946.30000
    693.53,  2800.90000,   936.30000
    693.99,  2818.20000,   933.10000
    694.45,  2811.20000,   934.40000
    694.92,  2832.10000,   935.50000
    695.38,  2848.20000,   922.30000
    695.84,  2833.90000,   904.00000
    696.31,  2817.00000,   896.70000
    696.77,  2823.30000,   895.70000
    697.23,  2811.30000,   901.90000
    697.69,  2816.60000,   902.80000
    698.16,  2809.30000,   898.80000
    698.62,  2796.20000,   896.00000
    699.08,  2773.30000,   900.10000
    699.54,  2770.20000,   907.70000
    700.01,  2756.60000,   908.80000
    700.47,  2744.70000,   895.70000
    700.93,  2749.30000,   886.70000
    701.39,  2764.70000,   881.00000
    701.86,  2786.40000,   873.10000
    702.32,  2781.40000,   888.90000
    702.78,  2787.70000,   893.90000
    703.24,  2777.80000,   898.90000
    703.71,  2779.00000,   898.40000
    704.17,  2785.90000,   904.60000
    704.63,  2786.10000,   894.50000
    705.09,  2773.90000,   895.20000
    705.56,  2807.90000,   885.40000
    706.02,  2809.40000,   882.60000
    706.48,  2788.10000,   886.90000
    706.94,  2780.50000,   891.00000
    707.40,  2763.70000,   889.60000
    707.87,  2768.10000,   882.00000
    708.33,  2788.10000,   878.00000
    708.79,  2777.80000,   874.50000
    709.25,  2742.80000,   882.20000
    709.72,  2747.80000,   880.00000
    710.18,  2763.90000,   881.40000
    710.64,  2767.30000,   872.60000
    711.10,  2761.90000,   876.50000
    711.56,  2776.70000,   871.00000
    712.03,  2792.90000,   872.50000
    712.49,  2815.50000,   872.20000
    712.95,  2830.10000,   872.20000
    713.41,  2808.40000,   866.60000
    713.87,  2797.10000,   868.60000
    714.33,  2798.40000,   863.30000
    714.80,  2798.40000,   851.20000
    715.26,  2765.10000,   852.00000
    715.72,  2759.00000,   846.70000
    716.18,  2758.80000,   847.60000
    716.64,  2769.20000,   858.40000
    717.11,  2770.10000,   862.50000
    717.57,  2769.50000,   862.50000
    718.03,  2739.40000,   863.40000
    718.49,  2747.70000,   852.60000
    718.95,  2796.70000,   847.20000
    719.41,  2801.20000,   853.90000
    719.87,  2768.90000,   849.60000
    720.34,  2761.10000,   851.80000
    720.80,  2751.10000,   851.70000
    721.26,  2750.60000,   848.80000
    721.72,  2782.30000,   853.20000
    722.18,  2773.90000,   852.90000
    722.64,  2746.20000,   842.60000
    723.10,  2764.90000,   835.50000
    723.57,  2771.70000,   837.90000
    724.03,  2786.40000,   828.20000
    724.49,  2780.60000,   832.60000
    724.95,  2746.50000,   825.20000
    725.41,  2800.10000,   823.40000
    725.87,  2851.00000,   826.30000
    726.33,  2868.20000,   833.50000
    726.80,  2875.60000,   832.30000
    727.26,  2836.80000,   830.70000
    727.72,  2756.10000,   823.50000
    728.18,  2766.60000,   821.40000
    728.64,  2760.20000,   817.40000
    729.10,  2768.50000,   820.60000
    729.56,  2785.90000,   818.90000
    730.02,  2809.30000,   828.80000
    730.48,  2799.90000,   838.70000
    730.94,  2788.20000,   842.40000
    731.41,  2775.10000,   837.70000
    731.87,  2746.30000,   835.80000
    732.33,  2731.90000,   825.90000
    732.79,  2763.40000,   822.70000
    733.25,  2763.60000,   821.70000
    733.71,  2780.20000,   816.20000
    734.17,  2798.80000,   819.70000
    734.63,  2771.60000,   826.10000
    735.09,  2755.30000,   831.50000
    735.55,  2757.30000,   832.70000
    736.01,  2740.00000,   841.70000
    736.47,  2745.80000,   837.30000
    736.94,  2753.20000,   836.90000
    737.40,  2767.90000,   821.80000
    737.86,  2771.20000,   804.20000
    738.32,  2783.50000,   804.70000
    738.78,  2793.10000,   810.90000
    739.24,  2782.20000,   817.30000
    739.70,  2772.90000,   822.60000
    740.16,  2803.40000,   814.50000
    740.62,  2809.70000,   806.30000
    741.08,  2825.10000,   811.90000
    741.54,  2810.20000,   812.20000
    742.00,  2792.50000,   812.40000
    742.46,  2759.70000,   808.70000
    742.92,  2740.40000,   799.60000
    743.38,  2738.60000,   799.90000
    743.84,  2738.40000,   806.40000
    744.30,  2752.80000,   814.30000
    744.76,  2777.20000,   812.40000
    745.22,  2776.60000,   817.40000
    745.68,  2754.20000,   812.80000
    746.14,  2744.60000,   813.20000
    746.60,  2743.00000,   816.30000
    747.06,  2754.40000,   818.00000
    747.52,  2743.30000,   810.10000
    747.98,  2765.10000,   805.90000
    748.44,  2769.70000,   804.20000
    748.90,  2771.50000,   807.30000
    749.36,  2776.50000,   815.50000
    749.82,  2780.10000,   819.90000
    750.28,  2781.50000,   823.00000
    750.74,  2800.20000,   818.80000
    751.20,  2806.90000,   809.70000
    751.66,  2792.60000,   799.00000
    752.12,  2769.90000,   792.50000
    752.58,  2769.30000,   799.10000
    753.04,  2786.10000,   806.10000
    753.50,  2808.40000,   818.00000
    753.96,  2798.10000,   813.20000
    754.42,  2767.50000,   805.40000
    754.88,  2740.40000,   799.90000
    755.34,  2740.20000,   803.70000
    755.80,  2768.10000,   799.40000
    756.26,  2784.90000,   803.10000
    756.72,  2786.40000,   796.70000
    757.18,  2786.80000,   793.50000
    757.64,  2776.30000,   792.70000
    758.10,  2749.20000,   799.80000
    758.56,  2736.80000,   802.70000
    759.02,  2745.80000,   803.20000
    759.48,  2751.70000,   798.20000
    759.94,  2772.40000,   793.70000
    760.40,  2778.90000,   786.10000
    760.86,  2771.90000,   789.90000
    761.32,  2777.50000,   793.10000
    761.78,  2797.60000,   808.30000
    762.24,  2773.60000,   814.30000
    762.70,  2775.30000,   815.10000
    763.15,  2758.50000,   813.60000
    763.61,  2764.50000,   809.60000
    764.07,  2782.50000,   800.90000
    764.53,  2775.60000,   810.70000
    764.99,  2778.40000,   806.70000
    765.45,  2794.30000,   803.20000
    765.91,  2777.50000,   803.50000
    766.37,  2762.60000,   808.60000
    766.83,  2743.30000,   807.50000
    767.29,  2745.10000,   813.60000
    767.75,  2756.90000,   806.00000
    768.21,  2777.40000,   802.10000
    768.66,  2788.20000,   798.30000
    769.12,  2790.60000,   794.50000
    769.58,  2761.10000,   796.60000
    770.04,  2754.00000,   797.40000
    770.50,  2725.90000,   800.30000
    770.96,  2711.70000,   809.20000
    771.42,  2744.30000,   807.50000
    771.88,  2762.70000,   793.20000
    772.34,  2766.40000,   798.40000
    772.80,  2758.90000,   799.90000
    773.25,  2738.60000,   808.20000
    773.71,  2730.40000,   818.70000
    774.17,  2720.10000,   816.10000
    774.63,  2734.50000,   810.70000
    775.09,  2752.20000,   812.90000
    775.55,  2746.30000,   805.30000
    776.01,  2724.50000,   801.10000
    776.47,  2722.20000,   806.60000
    776.92,  2702.10000,   806.20000
    777.38,  2732.80000,   811.30000
    777.84,  2743.50000,   808.70000
    778.30,  2743.80000,   799.90000
    778.76,  2734.10000,   791.80000
    779.22,  2744.40000,   795.60000
    779.68,  2743.00000,   795.60000
    780.13,  2749.10000,   801.70000
    780.59,  2729.70000,   805.50000
    781.05,  2719.40000,   803.70000
    781.51,  2734.10000,   791.90000
    781.97,  2751.20000,   793.70000
    782.43,  2760.90000,   789.10000
    782.88,  2773.70000,   795.30000
    783.34,  2761.60000,   800.30000
    783.80,  2762.50000,   800.50000
    784.26,  2784.70000,   784.00000
    784.72,  2772.00000,   778.50000
    785.18,  2757.60000,   780.70000
    785.63,  2738.10000,   801.70000
    786.09,  2755.10000,   811.80000
    786.55,  2790.10000,   813.70000
    787.01,  2814.40000,   805.30000
    787.47,  2790.90000,   787.80000
    787.92,  2758.50000,   785.50000
    788.38,  2725.20000,   799.00000
    788.84,  2721.40000,   800.30000
    789.30,  2736.10000,   801.30000
    789.76,  2747.90000,   800.30000
    790.21,  2748.80000,   790.10000
    790.67,  2733.50000,   795.50000
    791.13,  2728.40000,   802.90000
    791.59,  2707.60000,   801.60000
    792.05,  2705.00000,   815.80000
    792.50,  2721.10000,   827.90000
    792.96,  2746.50000,   837.40000
    793.42,  2719.90000,   847.40000
    793.88,  2730.80000,   841.00000
    794.33,  2708.50000,   827.70000
    794.79,  2711.50000,   817.90000
    795.25,  2720.00000,   802.70000
    795.71,  2737.40000,   807.60000
    796.17,  2740.10000,   813.80000
    796.62,  2746.40000,   828.40000
    797.08,  2718.70000,   857.80000
    797.54,  2722.00000,   863.30000
    798.00,  2711.60000,   859.40000
    798.45,  2717.70000,   858.70000
    798.91,  2725.50000,   850.40000
    799.37,  2731.30000,   847.50000
    799.83,  2731.90000,   851.10000
    800.28,  2727.90000,   838.00000
    800.74,  2719.20000,   849.70000
    801.20,  2737.90000,   857.40000
    801.66,  2719.30000,   857.40000
    802.11,  2732.90000,   852.90000
    802.57,  2750.70000,   834.00000
    803.03,  2728.80000,   814.00000
    803.48,  2705.30000,   804.80000
    803.94,  2754.90000,   803.90000
    804.40,  2769.40000,   794.90000
    804.86,  2796.20000,   782.60000
    805.31,  2785.70000,   776.30000
    805.77,  2739.60000,   779.60000
    806.23,  2689.30000,   771.20000
    806.69,  2715.60000,   780.00000
    807.14,  2725.80000,   777.60000
    807.60,  2745.60000,   773.30000
    808.06,  2744.90000,   779.30000
    808.51,  2738.70000,   780.70000
    808.97,  2711.70000,   774.80000
    809.43,  2718.80000,   771.60000
    809.88,  2720.20000,   769.80000
    810.34,  2710.70000,   774.00000
    810.80,  2730.70000,   779.50000
    811.26,  2743.20000,   773.70000
    811.71,  2733.50000,   766.50000
    812.17,  2754.20000,   761.70000
    812.63,  2746.20000,   761.30000
    813.08,  2719.80000,   763.60000
    813.54,  2725.90000,   762.40000
    814.00,  2734.30000,   760.00000
    814.45,  2740.80000,   754.30000
    814.91,  2754.40000,   766.30000
    815.37,  2734.90000,   765.30000
    815.82,  2716.50000,   770.50000
    816.28,  2703.20000,   763.40000
    816.74,  2710.30000,   757.80000
    817.19,  2689.20000,   758.10000
    817.65,  2699.10000,   769.70000
    818.11,  2721.10000,   764.90000
    818.56,  2732.30000,   764.30000
    819.02,  2728.00000,   752.00000
    819.48,  2735.10000,   745.80000
    819.93,  2688.30000,   757.30000
    820.39,  2706.00000,   763.10000
    820.84,  2739.50000,   756.80000
    821.30,  2758.80000,   755.30000
    821.76,  2763.40000,   750.10000
    822.21,  2764.00000,   751.40000
    822.67,  2729.90000,   764.10000
    823.13,  2692.60000,   767.40000
    823.58,  2728.20000,   764.80000
    824.04,  2755.70000,   758.80000
    824.49,  2753.10000,   761.80000
    824.95,  2759.20000,   755.30000
    825.41,  2759.30000,   750.10000
    825.86,  2729.40000,   748.40000
    826.32,  2761.90000,   748.80000
    826.78,  2741.90000,   748.60000
    827.23,  2709.20000,   753.10000
    827.69,  2694.90000,   750.10000
    828.14,  2699.60000,   743.10000
    828.60,  2722.30000,   739.50000
    829.06,  2748.60000,   731.80000
    829.51,  2742.00000,   731.70000
    829.97,  2751.20000,   731.20000
    830.42,  2749.80000,   736.00000
    830.88,  2727.90000,   747.40000
    831.34,  2726.60000,   740.90000
    831.79,  2747.00000,   734.60000
    832.25,  2746.10000,   733.20000
    832.70,  2744.50000,   732.20000
    833.16,  2753.80000,   719.10000
    833.61,  2740.30000,   726.40000
    834.07,  2743.40000,   706.40000
    834.53,  2739.60000,   710.00000
    834.98,  2725.80000,   710.40000
    835.44,  2706.80000,   716.00000
    835.89,  2719.90000,   709.90000
    836.35,  2725.10000,   732.40000
    836.80,  2751.80000,   734.90000
    837.26,  2732.30000,   739.20000
    837.71,  2713.00000,   726.90000
    838.17,  2706.70000,   727.90000
    838.63,  2704.40000,   720.70000
    839.08,  2696.40000,   730.30000
    839.54,  2716.10000,   732.40000
    839.99,  2712.30000,   718.90000
    840.45,  2722.70000,   711.30000
    840.90,  2745.50000,   711.80000
    841.36,  2754.80000,   714.60000
    841.81,  2742.30000,   719.60000
    842.27,  2729.10000,   728.20000
    842.72,  2711.00000,   723.10000
    843.18,  2715.30000,   716.70000
    843.63,  2706.90000,   699.50000
    844.09,  2710.30000,   688.10000
    844.55,  2699.90000,   686.60000
    845.00,  2690.30000,   698.20000
    845.46,  2694.40000,   711.30000
    845.91,  2707.20000,   707.40000
    846.37,  2723.20000,   704.20000
    846.82,  2744.90000,   702.40000
    847.28,  2754.90000,   698.50000
    847.73,  2710.80000,   701.90000
    848.19,  2734.90000,   708.00000
    848.64,  2739.30000,   712.10000
    849.10,  2755.60000,   718.50000
    849.55,  2758.70000,   714.50000
    850.01,  2751.10000,   695.20000
    850.46,  2700.40000,   689.60000
    850.92,  2727.00000,   685.60000
    851.37,  2727.80000,   701.10000
    851.83,  2724.90000,   712.70000
    852.28,  2724.70000,   716.40000
    852.73,  2704.20000,   709.30000
    853.19,  2683.50000,   700.60000
    853.64,  2695.10000,   700.40000
    854.10,  2706.30000,   698.20000
    854.55,  2717.60000,   690.90000
    855.01,  2725.00000,   689.30000
    855.46,  2700.50000,   685.60000
    855.92,  2682.30000,   691.20000
    856.37,  2676.70000,   708.20000
    856.83,  2673.90000,   713.50000
    857.28,  2701.40000,   707.30000
    857.74,  2708.50000,   702.50000
    858.19,  2710.20000,   701.60000
    858.64,  2724.60000,   708.60000
    859.10,  2713.00000,   705.80000
    859.55,  2687.70000,   703.80000
    860.01,  2742.20000,   691.30000
    860.46,  2768.00000,   686.00000
    860.92,  2765.50000,   689.80000
    861.37,  2770.00000,   684.90000
    861.83,  2759.80000,   681.30000
    862.28,  2724.00000,   690.80000
    862.73,  2735.80000,   689.50000
    863.19,  2723.60000,   690.70000
    863.64,  2706.30000,   687.50000
    864.10,  2700.60000,   681.60000
    864.55,  2721.60000,   683.30000
    865.01,  2719.90000,   686.70000
    865.46,  2733.20000,   686.00000
    865.91,  2717.50000,   686.10000
    866.37,  2713.30000,   681.40000
    866.82,  2701.00000,   691.90000
    867.28,  2699.70000,   699.30000
    867.73,  2690.50000,   704.50000
    868.18,  2717.00000,   708.60000
    868.64,  2712.80000,   711.10000
    869.09,  2736.60000,   700.90000
    869.55,  2749.90000,   694.10000
    870.00,  2743.90000,   687.30000
    870.45,  2733.30000,   692.70000
    870.91,  2705.50000,   693.90000
    871.36,  2673.70000,   702.10000
    871.81,  2692.10000,   701.40000
    872.27,  2724.90000,   695.00000
    872.72,  2735.50000,   685.10000
    873.18,  2734.40000,   688.80000
    873.63,  2704.20000,   686.60000
    874.08,  2692.50000,   690.70000
    874.54,  2701.40000,   695.40000
    874.99,  2703.50000,   697.90000
    875.44,  2686.50000,   693.30000
    875.90,  2669.90000,   694.80000
    876.35,  2674.30000,   688.00000
    876.81,  2714.80000,   679.80000
    877.26,  2741.10000,   683.50000
    877.71,  2727.10000,   688.30000
    878.17,  2693.40000,   700.10000
    878.62,  2708.60000,   702.90000
    879.07,  2729.70000,   702.60000
    879.53,  2757.10000,   696.20000
    879.98,  2754.70000,   696.00000
    880.43,  2734.20000,   693.70000
    880.89,  2713.20000,   697.80000
    881.34,  2713.50000,   695.80000
    881.79,  2723.80000,   700.70000
    882.25,  2718.40000,   702.40000
    882.70,  2702.60000,   703.00000
    883.15,  2685.90000,   706.30000
    883.61,  2701.40000,   703.20000
    884.06,  2682.40000,   701.80000
    884.51,  2707.20000,   692.90000
    884.97,  2691.80000,   695.30000
    885.42,  2698.20000,   699.30000
    885.87,  2693.50000,   708.70000
    886.32,  2709.40000,   719.80000
    886.78,  2681.90000,   725.30000
    887.23,  2699.90000,   710.90000
    887.68,  2696.60000,   702.60000
    888.14,  2705.80000,   697.00000
    888.59,  2697.40000,   698.20000
    889.04,  2674.50000,   707.50000
    889.50,  2638.50000,   714.00000
    889.95,  2663.20000,   709.90000
    890.40,  2698.30000,   700.10000
    890.85,  2716.70000,   703.90000
    891.31,  2714.20000,   702.40000
    891.76,  2703.10000,   706.80000
    892.21,  2678.90000,   707.20000
    892.67,  2690.90000,   703.70000
    893.12,  2688.10000,   698.30000
    893.57,  2694.80000,   706.00000
    894.02,  2705.10000,   712.80000
    894.48,  2723.90000,   718.00000
    894.93,  2720.70000,   722.40000
    895.38,  2726.60000,   720.10000
    895.83,  2711.70000,   714.30000
    896.29,  2712.80000,   704.10000
    896.74,  2705.30000,   708.40000
    897.19,  2718.60000,   701.30000
    897.64,  2719.40000,   714.30000
    898.10,  2722.60000,   721.70000
    898.55,  2703.40000,   722.50000
    899.00,  2697.50000,   718.60000
    899.45,  2663.60000,   722.10000
    899.91,  2657.40000,   724.70000
    900.36,  2640.00000,   731.50000
    900.81,  2665.70000,   736.60000
    901.26,  2679.50000,   733.00000
    901.72,  2707.10000,   733.20000
    902.17,  2702.40000,   730.40000
    902.62,  2712.40000,   739.60000
    903.07,  2679.70000,   736.40000
    903.52,  2686.90000,   737.60000
    903.98,  2688.70000,   731.40000
    904.43,  2696.10000,   730.60000
    904.88,  2683.40000,   727.20000
    905.33,  2692.20000,   728.80000
    905.79,  2680.40000,   722.30000
    906.24,  2690.60000,   722.40000
    906.69,  2704.80000,   721.60000
    907.14,  2708.10000,   726.80000
    907.59,  2682.70000,   730.70000
    908.05,  2661.00000,   737.30000
    908.50,  2648.10000,   731.80000
    908.95,  2650.00000,   735.50000
    909.40,  2653.90000,   748.00000
    909.85,  2651.40000,   749.10000
    910.31,  2657.90000,   751.40000
    910.76,  2644.90000,   752.10000
    911.21,  2643.30000,   741.00000
    911.66,  2648.70000,   735.60000
    912.11,  2645.80000,   744.20000
    912.56,  2668.10000,   744.90000
    913.02,  2685.60000,   755.60000
    913.47,  2680.20000,   765.60000
    913.92,  2673.70000,   775.50000
    914.37,  2665.50000,   777.50000
    914.82,  2668.30000,   783.30000
    915.27,  2690.70000,   782.90000
    915.73,  2704.10000,   790.60000
    916.18,  2694.10000,   793.90000
    916.63,  2675.30000,   805.80000
    917.08,  2633.90000,   817.30000
    917.53,  2673.10000,   829.20000
    917.98,  2563.80000,   836.20000
    918.44,  2912.10000,   847.90000
    918.89,  3094.00000,   856.00000
    919.34,  3142.90000,   869.00000
    919.79,  3042.10000,   879.20000
    920.24,  2880.90000,   891.80000
    920.69,  2562.60000,   895.60000
    921.14,  2702.10000,   903.20000
    921.59,  2694.30000,   916.00000
    922.05,  2691.00000,   933.70000
    922.50,  2684.10000,   956.60000
    922.95,  2700.80000,   993.50000
    923.40,  2725.20000,  1017.80000
    923.85,  2730.50000,  1069.80000
    924.30,  2734.60000,  1129.70000
    924.75,  2723.10000,  1196.20000
    925.20,  2700.90000,  1278.80000
    925.66,  2676.80000,  1380.70000
    926.11,  2675.70000,  1487.20000
    926.56,  2673.00000,  1644.70000
    927.01,  2688.90000,  1829.20000
    927.46,  2682.60000,  2035.50000
    927.91,  2653.40000,  2268.30000
    928.36,  2619.70000,  2518.00000
    928.81,  2638.00000,  2761.80000
    929.26,  2665.00000,  3025.20000
    929.71,  2703.40000,  3313.70000
    930.16,  2723.10000,  3629.90000
    930.62,  2698.80000,  3961.00000
    931.07,  2682.90000,  4314.60000
    931.52,  2678.70000,  4671.00000
    931.97,  2689.30000,  5006.30000
    932.42,  2691.70000,  5301.40000
    932.87,  2700.50000,  5539.70000
    933.32,  2685.40000,  5753.10000
    933.77,  2709.10000,  5947.90000
    934.22,  2702.90000,  6122.60000
    934.67,  2718.20000,  6283.00000
    935.12,  2704.80000,  6426.10000
    935.57,  2682.30000,  6522.80000
    936.02,  2650.00000,  6585.00000
    936.47,  2663.60000,  6606.20000
    936.93,  2642.80000,  6620.70000
    937.38,  2650.50000,  6646.70000
    937.83,  2668.10000,  6699.40000
    938.28,  2669.60000,  6735.70000
    938.73,  2667.20000,  6764.10000
    939.18,  2683.00000,  6817.00000
    939.63,  2681.20000,  6934.20000
    940.08,  2692.10000,  7103.30000
    940.53,  2714.90000,  7306.70000
    940.98,  2712.10000,  7496.80000
    941.43,  2687.10000,  7685.30000
    941.88,  2677.60000,  7867.40000
    942.33,  2673.90000,  8067.50000
    942.78,  2670.70000,  8260.40000
    943.23,  2684.80000,  8358.90000
    943.68,  2691.20000,  8398.60000
    944.13,  2703.00000,  8376.40000
    944.58,  2723.50000,  8374.60000
    945.03,  2714.00000,  8479.70000
    945.48,  2687.10000,  8577.50000
    945.93,  2671.50000,  8611.30000
    946.38,  2672.20000,  8619.50000
    946.83,  2697.80000,  8588.60000
    947.28,  2715.40000,  8603.00000
    947.73,  2712.20000,  8684.40000
    948.18,  2690.80000,  8709.50000
    948.63,  2672.60000,  8717.70000
    949.08,  2665.20000,  8750.30000
    949.53,  2655.00000,  8790.40000
    949.98,  2643.30000,  8802.80000
    950.43,  2652.50000,  8811.00000
    950.88,  2665.00000,  8794.40000
    951.33,  2682.30000,  8724.40000
    951.78,  2711.30000,  8719.60000
    952.23,  2716.70000,  8716.30000
    952.68,  2692.70000,  8576.80000
    953.13,  2683.60000,  8437.00000
    953.58,  2685.20000,  8332.90000
    954.03,  2674.50000,  8228.60000
    954.48,  2665.20000,  8207.20000
    954.93,  2661.50000,  8191.40000
    955.38,  2652.60000,  8082.20000
    955.83,  2661.40000,  7913.80000
    956.28,  2669.60000,  7814.70000
    956.73,  2682.10000,  7744.60000
    957.18,  2677.10000,  7645.60000
    957.62,  2669.00000,  7531.90000
    958.07,  2681.80000,  7362.60000
    958.52,  2671.10000,  7091.10000
    958.97,  2657.60000,  6864.50000
    959.42,  2658.10000,  6650.50000
    959.87,  2651.80000,  6431.60000
    960.32,  2660.40000,  6348.10000
    960.77,  2691.80000,  6312.00000
    961.22,  2730.50000,  6218.60000
    961.67,  2743.40000,  6098.90000
    962.12,  2715.50000,  5897.00000
    962.57,  2690.80000,  5624.50000
    963.02,  2691.10000,  5409.70000
    963.47,  2677.30000,  5218.70000
    963.92,  2698.10000,  5024.40000
    964.36,  2695.20000,  4891.40000
    964.81,  2678.50000,  4793.10000
    965.26,  2684.60000,  4713.00000
    965.71,  2693.60000,  4651.30000
    966.16,  2688.40000,  4594.30000
    966.61,  2673.50000,  4529.70000
    967.06,  2659.00000,  4475.90000
    967.51,  2670.90000,  4424.20000
    967.96,  2684.40000,  4368.60000
    968.41,  2695.10000,  4285.70000
    968.85,  2698.30000,  4162.00000
    969.30,  2687.00000,  4011.70000
    969.75,  2693.60000,  3865.10000
    970.20,  2698.40000,  3698.90000
    970.65,  2705.00000,  3552.30000
    971.10,  2690.30000,  3412.50000
    971.55,  2690.60000,  3249.60000
    972.00,  2677.50000,  3096.60000
    972.44,  2659.10000,  2967.90000
    972.89,  2680.70000,  2842.70000
    973.34,  2698.20000,  2750.10000
    973.79,  2695.40000,  2676.50000
    974.24,  2705.10000,  2600.20000
    974.69,  2681.60000,  2521.00000
    975.14,  2645.00000,  2447.80000
    975.59,  2651.50000,  2381.40000
    976.03,  2639.50000,  2345.70000
    976.48,  2640.70000,  2319.70000
    976.93,  2644.50000,  2327.40000
    977.38,  2645.30000,  2350.70000
    977.83,  2647.60000,  2367.20000
    978.28,  2657.80000,  2387.70000
    978.72,  2665.10000,  2387.60000
    979.17,  2681.10000,  2353.60000
    979.62,  2691.80000,  2324.30000
    980.07,  2695.40000,  2315.00000
    980.52,  2688.10000,  2320.60000
    980.97,  2661.40000,  2349.10000
    981.41,  2619.30000,  2370.00000
    981.86,  2603.80000,  2369.10000
    982.31,  2625.20000,  2354.70000
    982.76,  2647.00000,  2362.90000
    983.21,  2676.50000,  2385.40000
    983.66,  2681.50000,  2395.50000
    984.10,  2650.40000,  2382.20000
    984.55,  2634.30000,  2328.70000
    985.00,  2623.50000,  2247.50000
    985.45,  2607.20000,  2162.60000
    985.90,  2618.90000,  2076.20000
    986.34,  2633.90000,  1987.40000
    986.79,  2622.60000,  1901.80000
    987.24,  2626.20000,  1824.40000
    987.69,  2608.30000,  1751.80000
    988.14,  2612.20000,  1692.20000
    988.58,  2632.30000,  1646.70000
    989.03,  2646.40000,  1606.70000
    989.48,  2648.20000,  1563.30000
    989.93,  2645.30000,  1513.00000
    990.38,  2621.40000,  1465.20000
    990.82,  2630.60000,  1417.30000
    991.27,  2643.80000,  1379.20000
    991.72,  2667.00000,  1341.50000
    992.17,  2649.30000,  1303.10000
    992.61,  2651.70000,  1268.90000
    993.06,  2629.90000,  1237.40000
    993.51,  2657.00000,  1211.30000
    993.96,  2661.00000,  1187.90000
    994.41,  2655.70000,  1161.40000
    994.85,  2628.10000,  1147.30000
    995.30,  2641.10000,  1134.30000
    995.75,  2638.60000,  1112.70000
    996.20,  2678.90000,  1103.10000
    996.64,  2667.80000,  1083.70000
    997.09,  2634.40000,  1068.00000
    997.54,  2620.10000,  1058.60000
    997.99,  2609.20000,  1033.20000
    998.43,  2617.00000,  1005.50000
    998.88,  2618.60000,   993.40000
    999.33,  2622.60000,   982.10000
    999.77,  2641.90000,   975.30000
   1000.22,  2661.10000,   966.10000
   1000.67,  2669.80000,   955.30000
   1001.12,  2682.80000,   944.90000
   1001.56,  2648.80000,   938.70000
   1002.01,  2634.30000,   937.00000
   1002.46,  2648.90000,   929.00000
   1002.91,  2629.70000,   922.00000
   1003.35,  2638.50000,   916.30000
   1003.80,  2626.20000,   915.90000
   1004.25,  2626.90000,   904.40000
   1004.69,  2631.20000,   902.80000
   1005.14,  2628.40000,   901.70000
   1005.59,  2626.90000,   907.50000
   1006.04,  2661.50000,   902.10000
   1006.48,  2672.30000,   899.20000
   1006.93,  2702.20000,   892.10000
   1007.38,  2685.30000,   890.90000
   1007.82,  2640.70000,   896.00000
   1008.27,  2615.40000,   904.70000
   1008.72,  2603.00000,   906.10000
   1009.16,  2599.60000,   901.10000
   1009.61,  2614.80000,   895.90000
   1010.06,  2614.30000,   894.30000
   1010.50,  2641.30000,   896.50000
   1010.95,  2672.50000,   900.70000
   1011.40,  2679.40000,   903.90000
   1011.85,  2664.50000,   899.90000
   1012.29,  2654.90000,   898.10000
   1012.74,  2624.50000,   898.70000
   1013.19,  2619.70000,   888.90000
   1013.63,  2665.50000,   881.30000
   1014.08,  2686.50000,   887.90000
   1014.53,  2683.50000,   892.30000
   1014.97,  2661.90000,   900.60000
   1015.42,  2630.00000,   905.10000
   1015.86,  2600.70000,   891.10000
   1016.31,  2628.40000,   882.30000
   1016.76,  2657.70000,   884.40000
   1017.20,  2651.80000,   878.20000
   1017.65,  2624.40000,   881.40000
   1018.10,  2613.30000,   881.60000
   1018.54,  2593.50000,   886.10000
   1018.99,  2616.40000,   890.00000
   1019.44,  2633.00000,   890.30000
   1019.88,  2629.10000,   886.90000
   1020.33,  2620.30000,   884.20000
   1020.78,  2625.90000,   886.20000
   1021.22,  2628.40000,   898.20000
   1021.67,  2634.30000,   906.80000
   1022.11,  2627.70000,   907.00000
   1022.56,  2627.90000,   908.30000
   1023.01,  2617.50000,   903.10000
   1023.45,  2615.90000,   898.60000
   1023.90,  2620.30000,   896.50000
   1024.34,  2605.20000,   895.40000
   1024.79,  2611.00000,   887.70000
   1025.24,  2632.80000,   883.80000
   1025.68,  2624.70000,   883.00000
   1026.13,  2623.40000,   887.70000
   1026.58,  2623.70000,   895.20000
   1027.02,  2631.40000,   896.70000
   1027.47,  2640.10000,   897.90000
   1027.91,  2645.10000,   893.90000
   1028.36,  2623.90000,   885.20000
   1028.80,  2612.20000,   887.30000
   1029.25,  2591.00000,   893.90000
   1029.70,  2599.70000,   894.80000
   1030.14,  2592.20000,   901.40000
   1030.59,  2590.70000,   900.60000
   1031.03,  2597.10000,   895.40000
   1031.48,  2609.40000,   892.70000
   1031.93,  2631.80000,   895.40000
   1032.37,  2663.40000,   894.30000
   1032.82,  2660.40000,   901.10000
   1033.26,  2669.70000,   900.80000
   1033.71,  2647.10000,   906.40000
   1034.15,  2630.40000,   905.20000
   1034.60,  2625.10000,   906.30000
   1035.05,  2636.50000,   908.40000
   1035.49,  2624.30000,   906.20000
   1035.94,  2627.10000,   903.60000
   1036.38,  2591.70000,   903.60000
   1036.83,  2574.20000,   905.10000
   1037.27,  2564.20000,   908.40000
   1037.72,  2567.10000,   922.80000
   1038.16,  2666.20000,   927.30000
   1038.61,  2734.40000,   937.50000
   1039.05,  2743.30000,   934.40000
   1039.50,  2732.60000,   925.40000
   1039.95,  2685.30000,   910.50000
   1040.39,  2622.50000,   911.30000
   1040.84,  2628.80000,   919.50000
   1041.28,  2621.80000,   933.50000
   1041.73,  2612.50000,   944.30000
   1042.17,  2611.70000,   948.30000
   1042.62,  2616.20000,   946.50000
   1043.06,  2629.90000,   948.30000
   1043.51,  2608.10000,   949.00000
   1043.95,  2623.40000,   939.70000
   1044.40,  2622.70000,   940.40000
   1044.84,  2602.40000,   942.90000
   1045.29,  2590.20000,   946.50000
   1045.73,  2596.60000,   955.90000
   1046.18,  2583.40000,   953.50000
   1046.62,  2587.90000,   950.70000
   1047.07,  2582.40000,   952.60000
   1047.51,  2563.00000,   955.70000
   1047.96,  2590.60000,   959.80000
   1048.40,  2641.20000,   967.00000
   1048.85,  2660.80000,   972.20000
   1049.29,  2648.80000,   976.60000
   1049.74,  2603.60000,   976.60000
   1050.18,  2556.20000,   982.30000
   1050.63,  2555.90000,   977.10000
   1051.07,  2574.20000,   971.00000
   1051.52,  2594.80000,   976.80000
   1051.96,  2589.20000,   978.20000
   1052.41,  2572.10000,   979.70000
   1052.85,  2567.60000,   984.40000
   1053.30,  2563.60000,   987.90000
   1053.74,  2568.60000,   980.60000
   1054.18,  2579.60000,   981.60000
   1054.63,  2565.60000,   982.50000
   1055.07,  2557.40000,   985.00000
   1055.52,  2550.20000,   990.70000
   1055.96,  2544.90000,  1000.10000
   1056.41,  2538.80000,   995.40000
   1056.85,  2532.20000,  1001.90000
   1057.30,  2531.00000,  1009.50000
   1057.74,  2528.00000,  1011.80000
   1058.18,  2526.50000,  1014.30000
   1058.63,  2504.60000,  1012.10000
   1059.07,  2500.70000,  1007.70000
   1059.52,  2509.10000,  1015.70000
   1059.96,  2512.20000,  1025.90000
   1060.41,  2511.80000,  1024.90000
   1060.85,  2527.30000,  1019.50000
   1061.30,  2517.20000,  1020.50000
   1061.74,  2511.70000,  1013.10000
   1062.18,  2508.30000,  1021.60000
   1062.63,  2486.20000,  1019.00000
   1063.07,  2482.10000,  1024.70000
   1063.52,  2486.20000,  1031.10000
   1063.96,  2510.40000,  1035.60000
   1064.40,  2509.10000,  1031.80000
   1064.85,  2500.30000,  1036.50000
   1065.29,  2477.40000,  1031.30000
   1065.74,  2461.90000,  1037.50000
   1066.18,  2431.20000,  1045.40000
