2D Measure spectrum data V5.74

<< MEASURE 1 >>
Data count = 2048
Exposure time = 30000 msec
Average = 10
Inspected time = 2020/10/25 18:04

Wave-dcm-1,Dark spec.  ,Spectrum
    108.17,  2190.60000,   395.00000
    108.66,  2195.40000,   396.80000
    109.15,  2206.80000,   401.40000
    109.65,  2235.10000,   397.70000
    110.14,  2247.70000,   391.20000
    110.63,  2257.00000,   386.70000
    111.13,  2273.50000,   379.80000
    111.62,  2255.90000,   383.90000
    112.11,  2270.50000,   384.90000
    112.60,  2291.70000,   379.60000
    113.10,  2279.00000,   373.20000
    113.59,  2303.90000,   362.90000
    114.08,  2326.40000,   354.60000
    114.58,  2319.60000,   351.00000
    115.07,  2364.80000,   354.70000
    115.56,  2372.70000,   370.30000
    116.06,  2360.80000,   373.80000
    116.55,  2364.00000,   371.10000
    117.04,  2351.80000,   366.80000
    117.53,  2332.60000,   357.70000
    118.03,  2359.40000,   362.20000
    118.52,  2358.00000,   385.00000
    119.01,  2358.70000,   386.70000
    119.51,  2442.50000,   398.60000
    120.00,  2531.30000,   397.30000
    120.49,  2570.40000,   400.50000
    120.98,  2566.60000,   404.40000
    121.48,  2483.00000,   423.10000
    121.97,  2388.80000,   424.80000
    122.46,  2372.20000,   442.60000
    122.95,  2403.20000,   443.60000
    123.45,  2437.70000,   456.60000
    123.94,  2438.70000,   470.50000
    124.43,  2459.30000,   483.60000
    124.92,  2491.00000,   491.40000
    125.42,  2488.40000,   503.10000
    125.91,  2503.80000,   510.60000
    126.40,  2488.50000,   529.10000
    126.89,  2461.00000,   539.80000
    127.39,  2455.20000,   546.50000
    127.88,  2453.90000,   544.30000
    128.37,  2459.00000,   541.00000
    128.86,  2478.70000,   559.90000
    129.35,  2467.70000,   585.70000
    129.85,  2475.00000,   605.20000
    130.34,  2461.70000,   625.10000
    130.83,  2466.50000,   624.00000
    131.32,  2477.00000,   620.00000
    131.81,  2485.30000,   635.00000
    132.31,  2485.40000,   640.60000
    132.80,  2490.40000,   639.80000
    133.29,  2470.60000,   643.40000
    133.78,  2482.70000,   638.80000
    134.27,  2496.30000,   643.80000
    134.77,  2508.50000,   664.60000
    135.26,  2532.00000,   677.00000
    135.75,  2527.00000,   688.30000
    136.24,  2534.20000,   704.30000
    136.73,  2515.50000,   703.00000
    137.23,  2525.70000,   703.70000
    137.72,  2526.20000,   693.00000
    138.21,  2530.90000,   687.00000
    138.70,  2524.10000,   685.80000
    139.19,  2557.80000,   690.60000
    139.68,  2540.70000,   692.10000
    140.18,  2545.20000,   698.60000
    140.67,  2558.30000,   699.70000
    141.16,  2563.30000,   718.70000
    141.65,  2550.90000,   724.80000
    142.14,  2551.20000,   727.20000
    142.63,  2567.50000,   740.20000
    143.13,  2569.40000,   744.60000
    143.62,  2607.10000,   765.40000
    144.11,  2607.70000,   786.20000
    144.60,  2564.20000,   785.80000
    145.09,  2545.10000,   789.90000
    145.58,  2596.30000,   799.20000
    146.07,  2613.00000,   796.90000
    146.56,  2626.40000,   809.50000
    147.06,  2618.00000,   818.50000
    147.55,  2588.60000,   820.30000
    148.04,  2549.20000,   828.50000
    148.53,  2585.10000,   844.20000
    149.02,  2563.80000,   851.60000
    149.51,  2633.10000,   870.70000
    150.00,  2683.70000,   900.60000
    150.49,  2702.60000,   924.30000
    150.99,  2704.40000,   943.70000
    151.48,  2682.30000,   970.00000
    151.97,  2604.00000,   980.60000
    152.46,  2604.70000,  1003.30000
    152.95,  2578.10000,  1023.80000
    153.44,  2580.30000,  1023.40000
    153.93,  2600.40000,  1036.70000
    154.42,  2616.00000,  1045.90000
    154.91,  2601.30000,  1042.80000
    155.40,  2586.10000,  1051.80000
    155.89,  2569.00000,  1055.70000
    156.39,  2599.20000,  1053.60000
    156.88,  2578.90000,  1072.40000
    157.37,  2588.60000,  1087.40000
    157.86,  2591.10000,  1103.20000
    158.35,  2591.00000,  1134.30000
    158.84,  2600.50000,  1160.70000
    159.33,  2647.90000,  1187.10000
    159.82,  2655.80000,  1203.00000
    160.31,  2671.80000,  1214.90000
    160.80,  2706.80000,  1223.30000
    161.29,  2660.90000,  1235.60000
    161.78,  2632.10000,  1240.20000
    162.27,  2604.00000,  1252.50000
    162.76,  2606.00000,  1261.20000
    163.25,  2620.80000,  1272.30000
    163.74,  2662.00000,  1271.10000
    164.23,  2669.40000,  1286.40000
    164.72,  2689.90000,  1310.40000
    165.21,  2656.70000,  1348.00000
    165.70,  2636.20000,  1373.20000
    166.20,  2668.70000,  1399.00000
    166.69,  2694.80000,  1411.60000
    167.18,  2704.00000,  1436.90000
    167.67,  2694.10000,  1456.00000
    168.16,  2663.00000,  1455.90000
    168.65,  2611.20000,  1439.60000
    169.14,  2640.70000,  1415.80000
    169.63,  2645.80000,  1393.00000
    170.12,  2636.60000,  1384.30000
    170.61,  2628.10000,  1380.70000
    171.10,  2682.70000,  1382.10000
    171.59,  2677.20000,  1396.60000
    172.08,  2691.70000,  1393.20000
    172.57,  2694.30000,  1396.90000
    173.06,  2691.50000,  1402.90000
    173.55,  2678.00000,  1411.00000
    174.04,  2660.30000,  1421.50000
    174.53,  2644.90000,  1433.00000
    175.02,  2635.50000,  1434.50000
    175.50,  2662.80000,  1441.50000
    175.99,  2697.20000,  1441.50000
    176.48,  2724.60000,  1437.50000
    176.97,  2698.30000,  1424.80000
    177.46,  2698.60000,  1413.50000
    177.95,  2668.80000,  1396.20000
    178.44,  2654.20000,  1391.40000
    178.93,  2641.80000,  1391.20000
    179.42,  2663.70000,  1391.10000
    179.91,  2674.00000,  1389.50000
    180.40,  2688.50000,  1391.90000
    180.89,  2699.50000,  1390.80000
    181.38,  2688.30000,  1404.10000
    181.87,  2678.50000,  1423.20000
    182.36,  2677.00000,  1435.90000
    182.85,  2639.70000,  1452.20000
    183.34,  2653.30000,  1451.80000
    183.83,  2662.90000,  1439.90000
    184.32,  2662.50000,  1419.40000
    184.81,  2702.20000,  1408.00000
    185.29,  2708.00000,  1397.40000
    185.78,  2680.70000,  1397.30000
    186.27,  2689.70000,  1389.20000
    186.76,  2676.30000,  1389.00000
    187.25,  2648.20000,  1384.10000
    187.74,  2710.90000,  1392.50000
    188.23,  2736.80000,  1399.20000
    188.72,  2765.90000,  1394.50000
    189.21,  2753.90000,  1395.30000
    189.70,  2717.90000,  1403.20000
    190.19,  2681.50000,  1410.00000
    190.67,  2667.60000,  1410.20000
    191.16,  2665.40000,  1412.00000
    191.65,  2676.00000,  1398.40000
    192.14,  2663.20000,  1387.00000
    192.63,  2688.60000,  1384.40000
    193.12,  2708.20000,  1386.10000
    193.61,  2694.40000,  1388.60000
    194.10,  2711.10000,  1391.40000
    194.59,  2702.30000,  1395.80000
    195.07,  2691.40000,  1394.10000
    195.56,  2701.70000,  1401.20000
    196.05,  2681.00000,  1404.90000
    196.54,  2662.90000,  1421.80000
    197.03,  2682.20000,  1423.10000
    197.52,  2722.60000,  1432.10000
    198.01,  2739.60000,  1428.10000
    198.49,  2743.40000,  1425.50000
    198.98,  2735.50000,  1422.00000
    199.47,  2691.10000,  1417.50000
    199.96,  2677.20000,  1404.10000
    200.45,  2693.50000,  1395.60000
    200.94,  2678.60000,  1390.50000
    201.43,  2680.50000,  1389.50000
    201.91,  2676.90000,  1389.80000
    202.40,  2663.70000,  1390.70000
    202.89,  2662.10000,  1401.70000
    203.38,  2683.60000,  1407.50000
    203.87,  2680.70000,  1415.50000
    204.36,  2670.80000,  1420.70000
    204.84,  2675.70000,  1412.60000
    205.33,  2692.80000,  1415.20000
    205.82,  2708.70000,  1418.80000
    206.31,  2704.80000,  1422.30000
    206.80,  2701.40000,  1424.70000
    207.28,  2707.10000,  1429.30000
    207.77,  2718.40000,  1423.10000
    208.26,  2735.30000,  1427.20000
    208.75,  2738.40000,  1423.30000
    209.24,  2711.40000,  1436.00000
    209.72,  2719.70000,  1445.80000
    210.21,  2728.70000,  1458.30000
    210.70,  2704.40000,  1467.80000
    211.19,  2728.80000,  1482.20000
    211.68,  2741.40000,  1487.50000
    212.16,  2737.50000,  1503.60000
    212.65,  2740.70000,  1517.70000
    213.14,  2719.70000,  1537.20000
    213.63,  2705.00000,  1545.80000
    214.12,  2697.90000,  1542.90000
    214.60,  2721.20000,  1538.10000
    215.09,  2730.20000,  1546.80000
    215.58,  2728.90000,  1548.40000
    216.07,  2721.00000,  1561.80000
    216.55,  2729.10000,  1569.80000
    217.04,  2670.30000,  1576.90000
    217.53,  2671.00000,  1590.20000
    218.02,  2663.40000,  1612.70000
    218.50,  2670.60000,  1627.50000
    218.99,  2695.40000,  1633.80000
    219.48,  2727.10000,  1641.60000
    219.97,  2698.00000,  1653.90000
    220.45,  2703.60000,  1676.60000
    220.94,  2692.50000,  1700.80000
    221.43,  2701.40000,  1732.80000
    221.92,  2724.80000,  1737.80000
    222.40,  2726.90000,  1739.00000
    222.89,  2717.70000,  1739.80000
    223.38,  2736.70000,  1745.20000
    223.86,  2753.30000,  1755.10000
    224.35,  2777.20000,  1773.10000
    224.84,  2780.10000,  1775.90000
    225.33,  2768.70000,  1763.80000
    225.81,  2731.30000,  1757.00000
    226.30,  2718.40000,  1743.90000
    226.79,  2714.30000,  1739.40000
    227.27,  2704.70000,  1739.00000
    227.76,  2702.90000,  1736.10000
    228.25,  2738.00000,  1718.60000
    228.74,  2748.60000,  1702.10000
    229.22,  2769.70000,  1678.30000
    229.71,  2759.80000,  1660.40000
    230.20,  2736.60000,  1639.90000
    230.68,  2725.30000,  1622.40000
    231.17,  2717.60000,  1598.30000
    231.66,  2690.70000,  1582.00000
    232.14,  2682.70000,  1554.20000
    232.63,  2670.70000,  1534.40000
    233.12,  2702.00000,  1506.00000
    233.60,  2734.10000,  1482.80000
    234.09,  2717.10000,  1457.40000
    234.58,  2705.10000,  1452.80000
    235.06,  2698.40000,  1447.30000
    235.55,  2687.00000,  1455.60000
    236.04,  2682.50000,  1444.00000
    236.52,  2699.90000,  1429.00000
    237.01,  2683.80000,  1405.10000
    237.50,  2719.20000,  1388.90000
    237.98,  2714.10000,  1381.20000
    238.47,  2768.10000,  1383.40000
    238.96,  2773.00000,  1378.70000
    239.44,  2764.90000,  1365.50000
    239.93,  2763.40000,  1357.60000
    240.41,  2722.40000,  1345.40000
    240.90,  2659.70000,  1343.70000
    241.39,  2692.00000,  1337.40000
    241.87,  2733.00000,  1342.90000
    242.36,  2749.00000,  1345.10000
    242.85,  2793.10000,  1342.80000
    243.33,  2781.10000,  1342.40000
    243.82,  2753.70000,  1337.20000
    244.30,  2728.50000,  1331.50000
    244.79,  2734.50000,  1325.30000
    245.28,  2711.10000,  1325.60000
    245.76,  2713.20000,  1315.60000
    246.25,  2703.20000,  1317.20000
    246.74,  2727.60000,  1305.30000
    247.22,  2752.60000,  1308.00000
    247.71,  2746.00000,  1302.10000
    248.19,  2725.50000,  1306.80000
    248.68,  2725.90000,  1311.30000
    249.16,  2692.20000,  1319.60000
    249.65,  2727.10000,  1316.40000
    250.14,  2740.80000,  1320.20000
    250.62,  2713.60000,  1318.80000
    251.11,  2693.10000,  1312.10000
    251.59,  2677.90000,  1305.70000
    252.08,  2665.60000,  1306.60000
    252.57,  2683.00000,  1303.60000
    253.05,  2686.90000,  1305.00000
    253.54,  2722.40000,  1312.10000
    254.02,  2751.50000,  1311.70000
    254.51,  2757.60000,  1305.50000
    254.99,  2755.20000,  1305.00000
    255.48,  2724.90000,  1305.20000
    255.96,  2698.90000,  1302.10000
    256.45,  2722.90000,  1313.80000
    256.94,  2729.90000,  1320.10000
    257.42,  2725.60000,  1312.70000
    257.91,  2730.70000,  1305.60000
    258.39,  2729.70000,  1294.30000
    258.88,  2712.40000,  1294.90000
    259.36,  2731.40000,  1304.70000
    259.85,  2730.30000,  1313.80000
    260.33,  2743.10000,  1318.70000
    260.82,  2765.60000,  1318.80000
    261.30,  2774.90000,  1310.30000
    261.79,  2744.40000,  1315.60000
    262.27,  2725.30000,  1316.10000
    262.76,  2705.20000,  1325.70000
    263.24,  2703.60000,  1337.30000
    263.73,  2728.00000,  1344.00000
    264.22,  2724.90000,  1340.50000
    264.70,  2787.30000,  1345.90000
    265.19,  2812.00000,  1338.10000
    265.67,  2815.30000,  1335.40000
    266.16,  2791.40000,  1338.00000
    266.64,  2765.10000,  1343.50000
    267.13,  2695.60000,  1354.00000
    267.61,  2697.40000,  1368.30000
    268.10,  2706.90000,  1376.60000
    268.58,  2711.20000,  1379.10000
    269.06,  2717.10000,  1373.30000
    269.55,  2739.90000,  1364.60000
    270.03,  2749.10000,  1365.80000
    270.52,  2747.40000,  1374.20000
    271.00,  2757.00000,  1386.50000
    271.49,  2749.10000,  1400.10000
    271.97,  2748.80000,  1406.20000
    272.46,  2757.20000,  1405.80000
    272.94,  2759.60000,  1409.20000
    273.43,  2749.90000,  1418.10000
    273.91,  2727.00000,  1411.60000
    274.40,  2716.00000,  1409.40000
    274.88,  2705.20000,  1421.80000
    275.37,  2710.60000,  1427.90000
    275.85,  2708.00000,  1444.50000
    276.33,  2709.90000,  1460.60000
    276.82,  2722.90000,  1457.50000
    277.30,  2729.60000,  1464.80000
    277.79,  2725.00000,  1470.60000
    278.27,  2737.60000,  1469.00000
    278.76,  2747.90000,  1473.00000
    279.24,  2756.40000,  1469.10000
    279.73,  2755.60000,  1468.50000
    280.21,  2742.10000,  1476.40000
    280.69,  2717.20000,  1478.50000
    281.18,  2716.80000,  1485.80000
    281.66,  2730.70000,  1482.90000
    282.15,  2770.20000,  1480.70000
    282.63,  2765.70000,  1487.90000
    283.11,  2762.30000,  1484.10000
    283.60,  2766.30000,  1483.60000
    284.08,  2783.70000,  1489.80000
    284.57,  2755.90000,  1490.00000
    285.05,  2753.30000,  1492.00000
    285.53,  2729.60000,  1491.90000
    286.02,  2702.70000,  1484.70000
    286.50,  2725.30000,  1489.00000
    286.99,  2742.40000,  1502.30000
    287.47,  2718.20000,  1509.80000
    287.95,  2706.30000,  1504.60000
    288.44,  2705.70000,  1487.90000
    288.92,  2706.30000,  1467.60000
    289.41,  2725.10000,  1458.60000
    289.89,  2746.80000,  1453.30000
    290.37,  2748.00000,  1460.40000
    290.86,  2766.80000,  1473.60000
    291.34,  2731.60000,  1470.30000
    291.82,  2714.40000,  1466.20000
    292.31,  2692.50000,  1454.70000
    292.79,  2710.70000,  1435.60000
    293.28,  2720.50000,  1417.30000
    293.76,  2738.20000,  1406.70000
    294.24,  2733.80000,  1397.80000
    294.73,  2753.30000,  1403.00000
    295.21,  2758.00000,  1400.10000
    295.69,  2776.00000,  1384.60000
    296.18,  2749.60000,  1366.10000
    296.66,  2700.20000,  1359.50000
    297.14,  2690.00000,  1349.80000
    297.63,  2699.90000,  1354.60000
    298.11,  2720.50000,  1353.60000
    298.59,  2765.30000,  1339.00000
    299.08,  2778.80000,  1334.00000
    299.56,  2770.90000,  1331.30000
    300.04,  2787.90000,  1314.40000
    300.53,  2785.00000,  1312.40000
    301.01,  2779.00000,  1313.10000
    301.49,  2767.40000,  1309.60000
    301.98,  2745.90000,  1305.30000
    302.46,  2722.80000,  1293.40000
    302.94,  2718.40000,  1282.80000
    303.42,  2714.70000,  1272.30000
    303.91,  2700.90000,  1262.50000
    304.39,  2684.40000,  1254.90000
    304.87,  2693.50000,  1243.50000
    305.36,  2711.20000,  1240.10000
    305.84,  2735.50000,  1248.50000
    306.32,  2772.10000,  1239.30000
    306.81,  2766.00000,  1223.50000
    307.29,  2747.80000,  1208.90000
    307.77,  2740.50000,  1190.80000
    308.25,  2736.50000,  1194.10000
    308.74,  2749.40000,  1193.80000
    309.22,  2743.40000,  1182.20000
    309.70,  2729.40000,  1176.70000
    310.18,  2718.50000,  1180.10000
    310.67,  2726.10000,  1182.00000
    311.15,  2740.60000,  1192.00000
    311.63,  2757.00000,  1182.80000
    312.12,  2759.50000,  1173.40000
    312.60,  2731.70000,  1169.40000
    313.08,  2710.90000,  1169.10000
    313.56,  2702.20000,  1158.10000
    314.05,  2699.50000,  1146.40000
    314.53,  2722.50000,  1133.60000
    315.01,  2782.00000,  1131.50000
    315.49,  2774.90000,  1135.10000
    315.98,  2775.20000,  1139.10000
    316.46,  2753.70000,  1131.60000
    316.94,  2713.20000,  1135.50000
    317.42,  2699.70000,  1136.40000
    317.90,  2708.00000,  1145.80000
    318.39,  2685.60000,  1144.60000
    318.87,  2730.00000,  1143.20000
    319.35,  2750.40000,  1143.70000
    319.83,  2758.20000,  1145.90000
    320.32,  2772.80000,  1132.80000
    320.80,  2785.90000,  1127.30000
    321.28,  2746.20000,  1119.60000
    321.76,  2781.40000,  1114.70000
    322.24,  2779.80000,  1111.20000
    322.73,  2792.10000,  1105.30000
    323.21,  2793.90000,  1100.80000
    323.69,  2795.30000,  1104.30000
    324.17,  2735.20000,  1116.50000
    324.65,  2707.70000,  1116.50000
    325.14,  2713.30000,  1113.40000
    325.62,  2727.00000,  1104.90000
    326.10,  2776.20000,  1110.00000
    326.58,  2803.80000,  1109.20000
    327.06,  2764.00000,  1114.10000
    327.55,  2776.50000,  1121.20000
    328.03,  2795.30000,  1128.90000
    328.51,  2796.00000,  1127.70000
    328.99,  2809.30000,  1132.30000
    329.47,  2801.60000,  1126.00000
    329.95,  2727.90000,  1126.70000
    330.44,  2735.90000,  1124.30000
    330.92,  2706.20000,  1124.50000
    331.40,  2692.90000,  1122.20000
    331.88,  2685.90000,  1124.40000
    332.36,  2700.90000,  1123.00000
    332.84,  2724.20000,  1121.60000
    333.33,  2771.70000,  1112.40000
    333.81,  2772.20000,  1102.40000
    334.29,  2777.00000,  1097.80000
    334.77,  2765.10000,  1102.50000
    335.25,  2755.10000,  1098.50000
    335.73,  2780.30000,  1085.90000
    336.21,  2783.10000,  1071.30000
    336.69,  2763.90000,  1068.10000
    337.18,  2749.60000,  1070.40000
    337.66,  2723.00000,  1073.30000
    338.14,  2704.20000,  1077.70000
    338.62,  2703.20000,  1078.80000
    339.10,  2725.90000,  1078.70000
    339.58,  2764.20000,  1086.80000
    340.06,  2772.20000,  1089.80000
    340.54,  2781.50000,  1081.90000
    341.03,  2762.70000,  1085.70000
    341.51,  2732.80000,  1080.60000
    341.99,  2736.70000,  1076.90000
    342.47,  2749.00000,  1073.90000
    342.95,  2741.60000,  1077.70000
    343.43,  2743.00000,  1076.50000
    343.91,  2739.70000,  1075.10000
    344.39,  2717.10000,  1066.20000
    344.87,  2694.90000,  1075.00000
    345.35,  2707.20000,  1081.10000
    345.84,  2718.60000,  1090.50000
    346.32,  2762.90000,  1101.90000
    346.80,  2787.30000,  1097.30000
    347.28,  2784.70000,  1090.60000
    347.76,  2752.30000,  1088.80000
    348.24,  2751.20000,  1082.60000
    348.72,  2775.70000,  1075.20000
    349.20,  2799.50000,  1080.40000
    349.68,  2787.30000,  1084.70000
    350.16,  2754.20000,  1080.50000
    350.64,  2716.50000,  1071.80000
    351.12,  2706.00000,  1078.40000
    351.60,  2764.50000,  1067.60000
    352.08,  2806.10000,  1069.80000
    352.56,  2824.20000,  1075.80000
    353.04,  2813.00000,  1069.50000
    353.53,  2786.50000,  1076.80000
    354.01,  2758.20000,  1088.30000
    354.49,  2770.40000,  1084.00000
    354.97,  2772.30000,  1077.40000
    355.45,  2776.60000,  1063.70000
    355.93,  2753.00000,  1053.70000
    356.41,  2758.30000,  1063.80000
    356.89,  2738.50000,  1075.50000
    357.37,  2745.70000,  1092.10000
    357.85,  2733.80000,  1092.60000
    358.33,  2736.90000,  1076.30000
    358.81,  2715.10000,  1069.90000
    359.29,  2720.40000,  1069.50000
    359.77,  2737.90000,  1073.90000
    360.25,  2759.90000,  1077.50000
    360.73,  2755.70000,  1085.30000
    361.21,  2748.40000,  1076.40000
    361.69,  2756.60000,  1078.20000
    362.17,  2748.20000,  1084.40000
    362.65,  2761.30000,  1090.30000
    363.13,  2769.50000,  1084.60000
    363.61,  2774.90000,  1093.40000
    364.09,  2746.00000,  1094.30000
    364.57,  2740.90000,  1106.10000
    365.05,  2741.40000,  1105.20000
    365.53,  2717.90000,  1113.90000
    366.01,  2736.50000,  1105.60000
    366.49,  2780.60000,  1095.00000
    366.97,  2746.90000,  1089.50000
    367.45,  2760.60000,  1092.70000
    367.93,  2784.10000,  1095.50000
    368.41,  2765.70000,  1106.90000
    368.89,  2764.90000,  1108.60000
    369.37,  2774.50000,  1109.70000
    369.85,  2726.70000,  1105.10000
    370.33,  2744.30000,  1107.30000
    370.80,  2758.30000,  1110.70000
    371.28,  2764.60000,  1101.10000
    371.76,  2743.80000,  1093.50000
    372.24,  2732.10000,  1088.70000
    372.72,  2732.20000,  1080.40000
    373.20,  2744.10000,  1087.00000
    373.68,  2762.90000,  1101.80000
    374.16,  2778.70000,  1111.70000
    374.64,  2755.30000,  1116.90000
    375.12,  2729.20000,  1122.40000
    375.60,  2759.60000,  1119.20000
    376.08,  2741.80000,  1113.20000
    376.56,  2737.00000,  1111.90000
    377.04,  2734.10000,  1108.00000
    377.52,  2745.30000,  1097.80000
    377.99,  2744.80000,  1098.90000
    378.47,  2771.00000,  1107.50000
    378.95,  2755.50000,  1117.00000
    379.43,  2773.50000,  1119.80000
    379.91,  2773.30000,  1128.00000
    380.39,  2815.20000,  1133.50000
    380.87,  2837.00000,  1127.60000
    381.35,  2826.60000,  1120.50000
    381.83,  2793.00000,  1121.80000
    382.31,  2760.10000,  1113.60000
    382.79,  2716.20000,  1126.50000
    383.26,  2727.40000,  1137.10000
    383.74,  2726.10000,  1146.20000
    384.22,  2729.00000,  1140.80000
    384.70,  2740.50000,  1131.20000
    385.18,  2717.60000,  1126.60000
    385.66,  2727.80000,  1131.70000
    386.14,  2742.70000,  1131.40000
    386.62,  2748.90000,  1145.30000
    387.09,  2766.90000,  1147.00000
    387.57,  2779.20000,  1151.90000
    388.05,  2769.90000,  1150.30000
    388.53,  2771.50000,  1143.90000
    389.01,  2773.70000,  1139.80000
    389.49,  2792.40000,  1135.40000
    389.97,  2788.60000,  1133.60000
    390.44,  2777.10000,  1135.80000
    390.92,  2759.90000,  1132.70000
    391.40,  2736.10000,  1147.00000
    391.88,  2732.50000,  1158.60000
    392.36,  2741.80000,  1162.80000
    392.84,  2742.30000,  1160.30000
    393.32,  2756.30000,  1155.60000
    393.79,  2753.60000,  1151.60000
    394.27,  2805.70000,  1157.40000
    394.75,  2808.70000,  1160.90000
    395.23,  2802.90000,  1160.80000
    395.71,  2780.00000,  1152.10000
    396.18,  2774.00000,  1154.90000
    396.66,  2779.90000,  1152.20000
    397.14,  2816.50000,  1163.40000
    397.62,  2780.70000,  1172.30000
    398.10,  2773.90000,  1173.10000
    398.58,  2758.50000,  1161.20000
    399.05,  2770.70000,  1152.50000
    399.53,  2779.20000,  1154.90000
    400.01,  2776.30000,  1159.00000
    400.49,  2754.40000,  1153.30000
    400.97,  2739.20000,  1148.90000
    401.44,  2705.00000,  1146.20000
    401.92,  2734.50000,  1140.80000
    402.40,  2728.40000,  1152.30000
    402.88,  2750.60000,  1157.90000
    403.36,  2767.00000,  1146.70000
    403.83,  2785.90000,  1144.80000
    404.31,  2753.40000,  1135.00000
    404.79,  2768.80000,  1124.50000
    405.27,  2740.60000,  1128.60000
    405.74,  2730.00000,  1133.90000
    406.22,  2756.10000,  1126.50000
    406.70,  2786.40000,  1126.00000
    407.18,  2770.40000,  1117.40000
    407.65,  2756.30000,  1112.90000
    408.13,  2717.10000,  1116.90000
    408.61,  2717.20000,  1125.30000
    409.09,  2734.40000,  1110.70000
    409.56,  2743.30000,  1146.50000
    410.04,  2753.90000,  1167.70000
    410.52,  2751.50000,  1173.70000
    411.00,  2722.20000,  1162.10000
    411.47,  2722.70000,  1132.50000
    411.95,  2715.30000,  1081.80000
    412.43,  2719.00000,  1088.90000
    412.91,  2722.90000,  1096.60000
    413.38,  2734.40000,  1115.30000
    413.86,  2742.40000,  1121.50000
    414.34,  2750.80000,  1110.10000
    414.82,  2761.90000,  1095.60000
    415.29,  2759.10000,  1077.50000
    415.77,  2761.10000,  1075.60000
    416.25,  2758.30000,  1084.00000
    416.72,  2763.60000,  1090.70000
    417.20,  2755.50000,  1093.70000
    417.68,  2724.80000,  1097.20000
    418.16,  2713.90000,  1089.80000
    418.63,  2737.90000,  1074.50000
    419.11,  2740.90000,  1069.40000
    419.59,  2752.90000,  1065.30000
    420.06,  2723.10000,  1067.80000
    420.54,  2686.50000,  1072.10000
    421.02,  2703.80000,  1077.90000
    421.50,  2734.80000,  1065.20000
    421.97,  2749.10000,  1058.00000
    422.45,  2747.20000,  1047.50000
    422.93,  2734.80000,  1044.10000
    423.40,  2715.30000,  1039.90000
    423.88,  2715.30000,  1048.70000
    424.36,  2721.80000,  1047.70000
    424.83,  2735.00000,  1051.90000
    425.31,  2750.90000,  1057.40000
    425.79,  2806.40000,  1060.20000
    426.26,  2843.20000,  1059.30000
    426.74,  2827.50000,  1048.30000
    427.22,  2810.00000,  1043.50000
    427.69,  2788.20000,  1042.70000
    428.17,  2759.40000,  1045.60000
    428.65,  2738.70000,  1058.30000
    429.12,  2766.50000,  1060.50000
    429.60,  2749.00000,  1054.70000
    430.08,  2755.40000,  1056.20000
    430.55,  2764.70000,  1049.90000
    431.03,  2771.70000,  1041.30000
    431.50,  2769.30000,  1043.20000
    431.98,  2771.90000,  1035.70000
    432.46,  2773.60000,  1037.20000
    432.93,  2751.60000,  1036.80000
    433.41,  2721.20000,  1046.10000
    433.89,  2721.90000,  1043.90000
    434.36,  2732.10000,  1041.30000
    434.84,  2727.50000,  1043.60000
    435.31,  2754.70000,  1038.10000
    435.79,  2756.30000,  1036.00000
    436.27,  2739.40000,  1044.50000
    436.74,  2741.60000,  1042.90000
    437.22,  2743.20000,  1041.10000
    437.70,  2734.10000,  1037.60000
    438.17,  2726.40000,  1027.50000
    438.65,  2726.50000,  1021.10000
    439.12,  2735.40000,  1024.30000
    439.60,  2737.10000,  1033.90000
    440.08,  2749.00000,  1044.70000
    440.55,  2733.10000,  1053.50000
    441.03,  2745.10000,  1051.80000
    441.50,  2747.80000,  1038.50000
    441.98,  2764.00000,  1032.30000
    442.45,  2750.70000,  1036.70000
    442.93,  2743.90000,  1044.20000
    443.41,  2725.70000,  1053.10000
    443.88,  2731.80000,  1053.70000
    444.36,  2728.20000,  1040.30000
    444.83,  2732.10000,  1033.20000
    445.31,  2733.10000,  1037.20000
    445.78,  2707.40000,  1044.50000
    446.26,  2704.70000,  1052.30000
    446.74,  2703.80000,  1062.60000
    447.21,  2733.60000,  1052.10000
    447.69,  2754.50000,  1046.70000
    448.16,  2779.60000,  1045.40000
    448.64,  2760.80000,  1035.40000
    449.11,  2738.20000,  1031.30000
    449.59,  2741.80000,  1039.50000
    450.06,  2742.30000,  1043.10000
    450.54,  2729.20000,  1056.60000
    451.02,  2763.10000,  1056.60000
    451.49,  2774.20000,  1046.20000
    451.97,  2764.50000,  1038.40000
    452.44,  2764.90000,  1032.70000
    452.92,  2745.80000,  1031.10000
    453.39,  2722.30000,  1039.20000
    453.87,  2741.60000,  1037.50000
    454.34,  2747.80000,  1034.40000
    454.82,  2752.20000,  1038.90000
    455.29,  2768.50000,  1031.50000
    455.77,  2774.40000,  1027.60000
    456.24,  2745.50000,  1036.40000
    456.72,  2721.70000,  1041.50000
    457.19,  2712.00000,  1044.60000
    457.67,  2724.60000,  1044.40000
    458.14,  2762.70000,  1036.00000
    458.62,  2772.70000,  1029.40000
    459.09,  2761.00000,  1035.40000
    459.57,  2738.90000,  1033.60000
    460.04,  2734.60000,  1045.00000
    460.52,  2734.70000,  1037.80000
    460.99,  2731.90000,  1041.60000
    461.47,  2722.40000,  1034.90000
    461.94,  2692.30000,  1044.40000
    462.42,  2686.90000,  1044.70000
    462.89,  2702.50000,  1049.50000
    463.37,  2725.00000,  1049.60000
    463.84,  2742.10000,  1056.30000
    464.32,  2753.70000,  1046.20000
    464.79,  2750.10000,  1050.00000
    465.26,  2750.40000,  1053.10000
    465.74,  2736.10000,  1045.30000
    466.21,  2746.50000,  1052.40000
    466.69,  2756.80000,  1052.60000
    467.16,  2759.60000,  1047.20000
    467.64,  2753.00000,  1038.70000
    468.11,  2737.20000,  1046.50000
    468.59,  2733.60000,  1038.20000
    469.06,  2742.90000,  1050.40000
    469.54,  2770.60000,  1044.00000
    470.01,  2769.00000,  1040.00000
    470.48,  2727.60000,  1035.30000
    470.96,  2746.60000,  1044.00000
    471.43,  2772.40000,  1044.30000
    471.91,  2795.30000,  1051.50000
    472.38,  2826.30000,  1053.80000
    472.86,  2792.60000,  1056.40000
    473.33,  2730.10000,  1051.50000
    473.80,  2727.20000,  1046.50000
    474.28,  2738.10000,  1037.70000
    474.75,  2757.60000,  1027.90000
    475.23,  2793.10000,  1036.00000
    475.70,  2789.30000,  1034.60000
    476.17,  2762.50000,  1035.90000
    476.65,  2757.70000,  1038.50000
    477.12,  2754.70000,  1047.30000
    477.60,  2723.80000,  1040.30000
    478.07,  2730.80000,  1042.30000
    478.54,  2744.30000,  1036.50000
    479.02,  2749.60000,  1047.80000
    479.49,  2773.50000,  1057.70000
    479.97,  2777.20000,  1064.40000
    480.44,  2769.60000,  1047.30000
    480.91,  2741.10000,  1037.10000
    481.39,  2736.60000,  1028.70000
    481.86,  2732.70000,  1038.00000
    482.34,  2714.60000,  1044.80000
    482.81,  2727.20000,  1051.30000
    483.28,  2757.30000,  1043.70000
    483.76,  2738.20000,  1043.80000
    484.23,  2756.40000,  1042.50000
    484.70,  2739.70000,  1047.50000
    485.18,  2732.30000,  1041.00000
    485.65,  2731.80000,  1046.70000
    486.12,  2736.80000,  1042.70000
    486.60,  2720.50000,  1045.70000
    487.07,  2730.00000,  1047.00000
    487.55,  2759.30000,  1045.60000
    488.02,  2784.80000,  1038.40000
    488.49,  2778.70000,  1046.30000
    488.97,  2785.40000,  1054.20000
    489.44,  2774.10000,  1061.20000
    489.91,  2741.70000,  1048.30000
    490.39,  2737.90000,  1041.60000
    490.86,  2693.70000,  1039.60000
    491.33,  2662.10000,  1035.40000
    491.81,  2702.00000,  1039.60000
    492.28,  2741.20000,  1050.30000
    492.75,  2746.80000,  1035.40000
    493.23,  2794.30000,  1043.20000
    493.70,  2807.50000,  1052.30000
    494.17,  2801.60000,  1044.20000
    494.64,  2792.80000,  1042.60000
    495.12,  2756.50000,  1038.50000
    495.59,  2758.40000,  1037.70000
    496.06,  2794.00000,  1038.70000
    496.54,  2813.80000,  1039.30000
    497.01,  2795.70000,  1037.40000
    497.48,  2778.40000,  1034.10000
    497.96,  2756.00000,  1033.00000
    498.43,  2780.30000,  1038.20000
    498.90,  2779.10000,  1042.40000
    499.37,  2796.80000,  1034.30000
    499.85,  2770.00000,  1029.40000
    500.32,  2763.60000,  1031.00000
    500.79,  2749.30000,  1030.00000
    501.27,  2758.70000,  1022.40000
    501.74,  2750.80000,  1028.40000
    502.21,  2754.40000,  1022.80000
    502.68,  2748.40000,  1023.80000
    503.16,  2734.20000,  1031.30000
    503.63,  2721.60000,  1029.50000
    504.10,  2729.70000,  1024.60000
    504.57,  2714.00000,  1033.90000
    505.05,  2730.60000,  1039.80000
    505.52,  2755.50000,  1045.60000
    505.99,  2755.40000,  1046.80000
    506.46,  2759.50000,  1033.70000
    506.94,  2755.60000,  1026.10000
    507.41,  2734.10000,  1034.40000
    507.88,  2739.90000,  1034.70000
    508.35,  2735.00000,  1033.20000
    508.83,  2725.30000,  1027.10000
    509.30,  2753.30000,  1016.90000
    509.77,  2765.90000,  1010.80000
    510.24,  2757.00000,  1020.60000
    510.72,  2736.80000,  1023.10000
    511.19,  2724.70000,  1027.80000
    511.66,  2724.30000,  1029.40000
    512.13,  2748.40000,  1037.90000
    512.60,  2743.20000,  1029.30000
    513.08,  2731.60000,  1033.00000
    513.55,  2721.70000,  1034.60000
    514.02,  2709.90000,  1038.70000
    514.49,  2708.90000,  1045.70000
    514.97,  2716.50000,  1052.50000
    515.44,  2735.20000,  1036.40000
    515.91,  2732.90000,  1030.40000
    516.38,  2732.00000,  1027.90000
    516.85,  2700.30000,  1023.50000
    517.33,  2682.70000,  1025.00000
    517.80,  2687.10000,  1022.00000
    518.27,  2720.40000,  1012.70000
    518.74,  2757.60000,  1020.00000
    519.21,  2778.20000,  1031.20000
    519.68,  2757.40000,  1032.70000
    520.16,  2737.10000,  1019.90000
    520.63,  2723.20000,  1008.70000
    521.10,  2715.50000,   999.50000
    521.57,  2733.70000,  1007.20000
    522.04,  2737.00000,  1024.90000
    522.52,  2735.10000,  1031.20000
    522.99,  2729.80000,  1026.80000
    523.46,  2749.30000,  1025.40000
    523.93,  2751.90000,  1024.80000
    524.40,  2774.20000,  1023.10000
    524.87,  2759.60000,  1030.20000
    525.34,  2746.20000,  1035.60000
    525.82,  2734.80000,  1032.90000
    526.29,  2742.30000,  1035.30000
    526.76,  2733.50000,  1044.80000
    527.23,  2749.60000,  1040.50000
    527.70,  2727.30000,  1045.10000
    528.17,  2718.80000,  1049.90000
    528.64,  2716.20000,  1047.80000
    529.12,  2723.00000,  1045.40000
    529.59,  2728.70000,  1037.70000
    530.06,  2740.00000,  1020.10000
    530.53,  2772.30000,  1017.10000
    531.00,  2746.70000,  1021.00000
    531.47,  2698.50000,  1034.90000
    531.94,  2687.30000,  1045.30000
    532.41,  2687.60000,  1044.70000
    532.89,  2713.20000,  1038.80000
    533.36,  2779.00000,  1034.20000
    533.83,  2767.70000,  1033.20000
    534.30,  2743.50000,  1043.80000
    534.77,  2752.90000,  1049.50000
    535.24,  2756.60000,  1057.10000
    535.71,  2754.00000,  1057.50000
    536.18,  2765.80000,  1050.00000
    536.65,  2757.30000,  1050.80000
    537.13,  2724.10000,  1055.10000
    537.60,  2709.20000,  1053.40000
    538.07,  2713.10000,  1056.30000
    538.54,  2704.20000,  1055.60000
    539.01,  2724.30000,  1061.30000
    539.48,  2767.70000,  1064.50000
    539.95,  2778.00000,  1068.00000
    540.42,  2781.50000,  1070.10000
    540.89,  2761.50000,  1080.00000
    541.36,  2732.40000,  1082.80000
    541.83,  2727.90000,  1088.60000
    542.30,  2736.40000,  1074.10000
    542.77,  2751.20000,  1072.30000
    543.25,  2769.50000,  1072.80000
    543.72,  2762.20000,  1078.30000
    544.19,  2756.00000,  1080.70000
    544.66,  2738.80000,  1084.30000
    545.13,  2729.60000,  1088.20000
    545.60,  2719.00000,  1094.90000
    546.07,  2745.50000,  1098.10000
    546.54,  2750.20000,  1107.50000
    547.01,  2751.40000,  1113.30000
    547.48,  2746.30000,  1115.80000
    547.95,  2738.70000,  1122.00000
    548.42,  2723.90000,  1111.50000
    548.89,  2763.50000,  1101.50000
    549.36,  2753.60000,  1108.30000
    549.83,  2737.40000,  1114.20000
    550.30,  2782.60000,  1119.10000
    550.77,  2785.20000,  1122.30000
    551.24,  2789.50000,  1112.80000
    551.71,  2805.90000,  1102.00000
    552.18,  2773.60000,  1100.90000
    552.65,  2715.60000,  1109.20000
    553.12,  2740.50000,  1125.90000
    553.59,  2739.50000,  1139.20000
    554.06,  2741.00000,  1142.40000
    554.53,  2755.30000,  1134.00000
    555.00,  2751.70000,  1125.30000
    555.47,  2740.90000,  1124.00000
    555.94,  2734.50000,  1135.50000
    556.41,  2725.10000,  1150.10000
    556.88,  2705.80000,  1152.30000
    557.35,  2704.90000,  1146.80000
    557.82,  2696.40000,  1143.40000
    558.29,  2702.70000,  1150.30000
    558.76,  2743.00000,  1150.70000
    559.23,  2762.40000,  1154.00000
    559.70,  2772.80000,  1151.10000
    560.17,  2768.40000,  1145.10000
    560.64,  2759.70000,  1141.30000
    561.11,  2744.00000,  1141.50000
    561.58,  2771.70000,  1141.30000
    562.05,  2762.40000,  1135.30000
    562.52,  2763.80000,  1140.10000
    562.99,  2756.20000,  1139.10000
    563.46,  2754.70000,  1146.50000
    563.93,  2743.60000,  1155.40000
    564.40,  2746.10000,  1164.90000
    564.87,  2752.20000,  1166.90000
    565.34,  2774.60000,  1158.70000
    565.81,  2767.50000,  1151.60000
    566.28,  2757.00000,  1158.40000
    566.74,  2739.60000,  1152.80000
    567.21,  2729.30000,  1154.80000
    567.68,  2739.40000,  1161.10000
    568.15,  2735.30000,  1157.50000
    568.62,  2717.10000,  1166.90000
    569.09,  2712.80000,  1171.80000
    569.56,  2710.10000,  1164.90000
    570.03,  2718.30000,  1160.90000
    570.50,  2763.70000,  1144.20000
    570.97,  2767.60000,  1133.80000
    571.44,  2758.80000,  1134.10000
    571.91,  2758.30000,  1143.30000
    572.38,  2734.50000,  1166.90000
    572.84,  2707.80000,  1179.00000
    573.31,  2724.00000,  1174.30000
    573.78,  2727.60000,  1164.40000
    574.25,  2729.70000,  1158.30000
    574.72,  2758.80000,  1142.60000
    575.19,  2748.90000,  1147.00000
    575.66,  2743.80000,  1144.00000
    576.13,  2740.90000,  1140.40000
    576.60,  2752.20000,  1144.10000
    577.07,  2777.40000,  1157.30000
    577.53,  2804.00000,  1150.50000
    578.00,  2792.50000,  1155.40000
    578.47,  2781.80000,  1144.00000
    578.94,  2751.70000,  1133.70000
    579.41,  2719.60000,  1135.20000
    579.88,  2731.80000,  1136.10000
    580.35,  2733.80000,  1146.10000
    580.82,  2741.70000,  1157.50000
    581.28,  2770.10000,  1150.70000
    581.75,  2775.50000,  1143.00000
    582.22,  2760.70000,  1140.70000
    582.69,  2760.50000,  1139.60000
    583.16,  2753.40000,  1146.70000
    583.63,  2741.20000,  1147.60000
    584.10,  2774.60000,  1141.80000
    584.56,  2793.70000,  1135.30000
    585.03,  2786.60000,  1132.10000
    585.50,  2779.40000,  1136.60000
    585.97,  2751.20000,  1138.00000
    586.44,  2733.80000,  1141.30000
    586.91,  2748.80000,  1139.50000
    587.37,  2748.00000,  1139.60000
    587.84,  2735.50000,  1137.80000
    588.31,  2731.70000,  1140.50000
    588.78,  2705.80000,  1147.30000
    589.25,  2731.80000,  1148.90000
    589.72,  2722.60000,  1146.10000
    590.18,  2746.80000,  1141.20000
    590.65,  2771.60000,  1131.30000
    591.12,  2756.00000,  1134.20000
    591.59,  2760.10000,  1136.00000
    592.06,  2751.70000,  1131.30000
    592.52,  2708.30000,  1131.80000
    592.99,  2728.10000,  1133.90000
    593.46,  2724.30000,  1137.00000
    593.93,  2673.00000,  1148.60000
    594.40,  2692.60000,  1152.70000
    594.86,  2718.30000,  1142.70000
    595.33,  2730.80000,  1136.50000
    595.80,  2758.20000,  1125.70000
    596.27,  2762.50000,  1128.40000
    596.74,  2745.10000,  1130.20000
    597.20,  2733.80000,  1134.70000
    597.67,  2749.80000,  1137.50000
    598.14,  2731.80000,  1132.50000
    598.61,  2723.40000,  1122.70000
    599.07,  2722.90000,  1122.70000
    599.54,  2715.00000,  1117.00000
    600.01,  2700.90000,  1117.20000
    600.48,  2756.50000,  1125.80000
    600.95,  2779.50000,  1119.80000
    601.41,  2790.60000,  1119.20000
    601.88,  2777.10000,  1115.40000
    602.35,  2722.10000,  1119.40000
    602.82,  2672.10000,  1124.00000
    603.28,  2691.20000,  1123.70000
    603.75,  2690.00000,  1121.10000
    604.22,  2722.60000,  1113.20000
    604.69,  2737.00000,  1105.90000
    605.15,  2740.20000,  1118.20000
    605.62,  2725.10000,  1123.90000
    606.09,  2723.30000,  1125.30000
    606.56,  2709.40000,  1112.20000
    607.02,  2718.40000,  1100.20000
    607.49,  2722.10000,  1082.20000
    607.96,  2744.50000,  1087.20000
    608.42,  2734.10000,  1093.60000
    608.89,  2780.70000,  1108.10000
    609.36,  2791.40000,  1103.50000
    609.83,  2774.90000,  1108.60000
    610.29,  2752.10000,  1090.80000
    610.76,  2726.10000,  1083.10000
    611.23,  2706.80000,  1084.90000
    611.69,  2730.60000,  1094.70000
    612.16,  2732.10000,  1099.60000
    612.63,  2737.00000,  1103.60000
    613.10,  2733.40000,  1085.10000
    613.56,  2717.50000,  1077.20000
    614.03,  2724.80000,  1075.00000
    614.50,  2722.50000,  1085.10000
    614.96,  2726.70000,  1090.90000
    615.43,  2736.00000,  1092.50000
    615.90,  2753.00000,  1075.50000
    616.36,  2750.20000,  1073.30000
    616.83,  2730.90000,  1071.30000
    617.30,  2721.70000,  1077.40000
    617.76,  2699.40000,  1075.90000
    618.23,  2681.60000,  1077.70000
    618.70,  2683.80000,  1071.10000
    619.16,  2698.80000,  1069.90000
    619.63,  2696.70000,  1067.50000
    620.10,  2700.20000,  1066.20000
    620.56,  2699.20000,  1062.00000
    621.03,  2722.20000,  1054.90000
    621.50,  2736.90000,  1050.90000
    621.96,  2743.00000,  1053.40000
    622.43,  2743.60000,  1045.20000
    622.90,  2738.60000,  1041.20000
    623.36,  2746.30000,  1035.10000
    623.83,  2757.60000,  1021.90000
    624.30,  2755.40000,  1018.90000
    624.76,  2752.00000,  1025.80000
    625.23,  2759.80000,  1021.00000
    625.70,  2767.80000,  1012.00000
    626.16,  2765.50000,  1019.20000
    626.63,  2736.30000,  1016.40000
    627.09,  2726.70000,  1025.40000
    627.56,  2736.10000,  1031.20000
    628.03,  2731.00000,  1037.20000
    628.49,  2741.00000,  1025.40000
    628.96,  2716.10000,  1031.70000
    629.43,  2710.70000,  1027.10000
    629.89,  2710.20000,  1029.20000
    630.36,  2718.00000,  1032.00000
    630.82,  2710.10000,  1040.80000
    631.29,  2715.20000,  1032.50000
    631.76,  2699.90000,  1018.20000
    632.22,  2693.80000,  1010.90000
    632.69,  2698.00000,  1010.50000
    633.15,  2715.90000,  1015.00000
    633.62,  2745.70000,  1022.40000
    634.09,  2760.90000,  1017.80000
    634.55,  2764.10000,  1005.30000
    635.02,  2737.30000,   998.30000
    635.48,  2730.70000,   981.20000
    635.95,  2722.80000,   984.60000
    636.42,  2730.80000,   994.20000
    636.88,  2717.10000,   997.70000
    637.35,  2708.00000,  1006.80000
    637.81,  2714.80000,  1007.30000
    638.28,  2726.80000,   989.60000
    638.74,  2745.50000,   989.40000
    639.21,  2757.80000,   988.00000
    639.68,  2734.30000,   988.90000
    640.14,  2701.20000,   996.50000
    640.61,  2707.70000,  1001.10000
    641.07,  2684.60000,  1001.80000
    641.54,  2708.30000,   998.10000
    642.00,  2728.60000,   998.80000
    642.47,  2738.70000,  1002.30000
    642.93,  2736.20000,   999.30000
    643.40,  2735.50000,   994.80000
    643.87,  2713.80000,   995.30000
    644.33,  2721.40000,   990.00000
    644.80,  2728.50000,   990.50000
    645.26,  2712.00000,   997.20000
    645.73,  2703.70000,   990.60000
    646.19,  2696.40000,   992.50000
    646.66,  2697.90000,  1000.50000
    647.12,  2691.00000,  1006.50000
    647.59,  2711.70000,   993.90000
    648.05,  2720.60000,   994.80000
    648.52,  2715.30000,   982.10000
    648.98,  2708.30000,   986.20000
    649.45,  2696.00000,   987.40000
    649.91,  2674.70000,   980.80000
    650.38,  2689.70000,   970.90000
    650.84,  2737.10000,   972.90000
    651.31,  2734.10000,   971.90000
    651.77,  2729.00000,   984.60000
    652.24,  2702.30000,   984.90000
    652.70,  2684.70000,   978.60000
    653.17,  2676.00000,   982.70000
    653.63,  2703.80000,   988.10000
    654.10,  2701.70000,   988.60000
    654.56,  2714.40000,   996.10000
    655.03,  2708.30000,   985.60000
    655.49,  2720.90000,   977.50000
    655.96,  2716.80000,   973.80000
    656.42,  2706.80000,   971.70000
    656.89,  2697.40000,   971.30000
    657.35,  2746.00000,   980.30000
    657.82,  2783.00000,   982.60000
    658.28,  2813.10000,   987.40000
    658.75,  2821.10000,   987.80000
    659.21,  2783.80000,   977.80000
    659.68,  2766.10000,   954.40000
    660.14,  2776.00000,   934.60000
    660.61,  2749.00000,   930.10000
    661.07,  2773.20000,   933.00000
    661.53,  2775.20000,   939.50000
    662.00,  2779.40000,   949.60000
    662.46,  2767.70000,   944.80000
    662.93,  2756.50000,   938.60000
    663.39,  2725.40000,   947.60000
    663.86,  2753.00000,   952.70000
    664.32,  2746.00000,   957.20000
    664.79,  2765.50000,   956.20000
    665.25,  2753.10000,   950.10000
    665.71,  2734.80000,   939.70000
    666.18,  2701.80000,   941.00000
    666.64,  2723.70000,   946.10000
    667.11,  2721.60000,   949.40000
    667.57,  2741.40000,   949.30000
    668.04,  2757.60000,   943.90000
    668.50,  2746.60000,   932.10000
    668.96,  2715.60000,   929.50000
    669.43,  2735.20000,   933.50000
    669.89,  2715.60000,   933.50000
    670.36,  2700.30000,   934.50000
    670.82,  2696.10000,   932.40000
    671.28,  2706.60000,   926.20000
    671.75,  2708.20000,   928.00000
    672.21,  2737.80000,   933.70000
    672.68,  2740.60000,   934.20000
    673.14,  2757.10000,   922.60000
    673.60,  2775.80000,   917.90000
    674.07,  2762.50000,   915.60000
    674.53,  2730.80000,   912.30000
    675.00,  2715.40000,   913.10000
    675.46,  2691.10000,   922.40000
    675.92,  2687.90000,   922.20000
    676.39,  2733.10000,   917.50000
    676.85,  2742.60000,   909.80000
    677.31,  2756.10000,   895.40000
    677.78,  2761.90000,   897.20000
    678.24,  2737.20000,   909.70000
    678.70,  2715.30000,   911.30000
    679.17,  2698.70000,   908.50000
    679.63,  2675.90000,   901.30000
    680.10,  2678.50000,   897.30000
    680.56,  2703.30000,   904.10000
    681.02,  2702.30000,   911.40000
    681.49,  2737.10000,   906.00000
    681.95,  2731.30000,   895.90000
    682.41,  2727.40000,   888.30000
    682.88,  2720.90000,   883.90000
    683.34,  2717.00000,   890.00000
    683.80,  2698.50000,   893.20000
    684.27,  2716.60000,   888.70000
    684.73,  2724.20000,   883.80000
    685.19,  2742.70000,   879.90000
    685.66,  2767.10000,   873.40000
    686.12,  2760.80000,   885.90000
    686.58,  2775.30000,   888.70000
    687.05,  2773.00000,   884.90000
    687.51,  2757.30000,   894.70000
    687.97,  2746.90000,   889.90000
    688.44,  2753.70000,   883.60000
    688.90,  2750.20000,   878.90000
    689.36,  2751.30000,   871.70000
    689.83,  2749.20000,   867.20000
    690.29,  2751.60000,   865.30000
    690.75,  2762.70000,   852.60000
    691.21,  2768.20000,   858.10000
    691.68,  2749.70000,   865.30000
    692.14,  2716.90000,   873.30000
    692.60,  2724.80000,   892.00000
    693.07,  2710.70000,   899.20000
    693.53,  2736.20000,   886.70000
    693.99,  2753.60000,   883.70000
    694.45,  2751.70000,   877.90000
    694.92,  2763.50000,   871.50000
    695.38,  2772.60000,   866.70000
    695.84,  2745.00000,   877.40000
    696.31,  2730.00000,   880.70000
    696.77,  2744.20000,   875.40000
    697.23,  2743.80000,   862.60000
    697.69,  2747.60000,   860.70000
    698.16,  2734.10000,   851.80000
    698.62,  2719.20000,   862.70000
    699.08,  2685.10000,   883.40000
    699.54,  2685.30000,   882.00000
    700.01,  2684.00000,   866.20000
    700.47,  2675.40000,   857.10000
    700.93,  2686.70000,   847.80000
    701.39,  2698.20000,   851.80000
    701.86,  2704.50000,   859.80000
    702.32,  2703.40000,   857.90000
    702.78,  2719.10000,   857.10000
    703.24,  2718.60000,   855.00000
    703.71,  2718.40000,   864.40000
    704.17,  2721.00000,   871.00000
    704.63,  2715.20000,   859.10000
    705.09,  2703.20000,   855.50000
    705.56,  2739.60000,   852.20000
    706.02,  2749.80000,   842.80000
    706.48,  2727.70000,   846.60000
    706.94,  2721.60000,   850.30000
    707.40,  2695.00000,   847.50000
    707.87,  2690.50000,   855.80000
    708.33,  2711.00000,   849.10000
    708.79,  2701.10000,   845.80000
    709.25,  2674.90000,   844.90000
    709.72,  2681.80000,   848.70000
    710.18,  2693.00000,   849.60000
    710.64,  2691.80000,   853.70000
    711.10,  2703.00000,   836.50000
    711.56,  2725.00000,   830.00000
    712.03,  2748.60000,   827.30000
    712.49,  2770.90000,   831.90000
    712.95,  2778.10000,   841.70000
    713.41,  2745.70000,   851.60000
    713.87,  2738.20000,   845.10000
    714.33,  2742.10000,   843.60000
    714.80,  2733.10000,   846.60000
    715.26,  2691.20000,   846.50000
    715.72,  2690.70000,   847.60000
    716.18,  2684.30000,   846.10000
    716.64,  2700.80000,   835.80000
    717.11,  2706.90000,   830.20000
    717.57,  2704.00000,   819.80000
    718.03,  2668.10000,   821.10000
    718.49,  2684.00000,   826.80000
    718.95,  2727.70000,   831.20000
    719.41,  2744.00000,   829.90000
    719.87,  2717.00000,   828.80000
    720.34,  2710.10000,   825.00000
    720.80,  2693.60000,   829.90000
    721.26,  2687.50000,   830.20000
    721.72,  2723.70000,   824.80000
    722.18,  2712.90000,   821.10000
    722.64,  2688.90000,   812.30000
    723.10,  2701.80000,   814.00000
    723.57,  2709.10000,   817.60000
    724.03,  2717.10000,   823.30000
    724.49,  2715.20000,   827.50000
    724.95,  2671.00000,   832.40000
    725.41,  2726.20000,   827.80000
    725.87,  2776.50000,   822.50000
    726.33,  2796.20000,   816.80000
    726.80,  2810.30000,   808.10000
    727.26,  2769.60000,   806.00000
    727.72,  2693.60000,   805.00000
    728.18,  2704.10000,   802.80000
    728.64,  2698.60000,   796.90000
    729.10,  2699.60000,   804.50000
    729.56,  2720.00000,   810.10000
    730.02,  2737.70000,   821.40000
    730.48,  2736.80000,   826.90000
    730.94,  2728.10000,   815.40000
    731.41,  2718.80000,   802.40000
    731.87,  2689.50000,   805.60000
    732.33,  2674.50000,   810.90000
    732.79,  2703.30000,   819.70000
    733.25,  2706.10000,   825.40000
    733.71,  2723.50000,   822.30000
    734.17,  2733.70000,   826.00000
    734.63,  2707.40000,   823.50000
    735.09,  2683.90000,   826.90000
    735.55,  2682.10000,   826.60000
    736.01,  2674.80000,   815.80000
    736.47,  2686.10000,   811.30000
    736.94,  2687.60000,   812.60000
    737.40,  2699.90000,   815.00000
    737.86,  2693.90000,   824.50000
    738.32,  2703.60000,   824.10000
    738.78,  2720.30000,   816.30000
    739.24,  2716.40000,   812.90000
    739.70,  2712.50000,   813.20000
    740.16,  2743.30000,   813.70000
    740.62,  2754.20000,   812.50000
    741.08,  2770.50000,   809.30000
    741.54,  2758.60000,   799.50000
    742.00,  2732.80000,   803.70000
    742.46,  2698.10000,   811.10000
    742.92,  2674.00000,   810.70000
    743.38,  2675.60000,   810.50000
    743.84,  2675.10000,   814.00000
    744.30,  2688.50000,   810.70000
    744.76,  2702.60000,   810.50000
    745.22,  2705.70000,   797.40000
    745.68,  2690.40000,   782.80000
    746.14,  2683.70000,   780.50000
    746.60,  2688.30000,   789.60000
    747.06,  2699.80000,   799.30000
    747.52,  2686.10000,   805.80000
    747.98,  2702.00000,   807.00000
    748.44,  2701.50000,   812.50000
    748.90,  2696.40000,   813.90000
    749.36,  2708.30000,   808.80000
    749.82,  2725.50000,   798.40000
    750.28,  2732.60000,   788.10000
    750.74,  2752.70000,   792.20000
    751.20,  2747.60000,   803.50000
    751.66,  2725.80000,   807.40000
    752.12,  2701.80000,   815.60000
    752.58,  2710.60000,   816.50000
    753.04,  2732.40000,   807.20000
    753.50,  2756.80000,   812.00000
    753.96,  2737.00000,   816.40000
    754.42,  2702.80000,   807.00000
    754.88,  2672.60000,   805.00000
    755.34,  2666.20000,   810.50000
    755.80,  2692.40000,   808.40000
    756.26,  2712.40000,   805.30000
    756.72,  2725.30000,   800.50000
    757.18,  2738.70000,   782.70000
    757.64,  2726.50000,   786.80000
    758.10,  2688.60000,   807.00000
    758.56,  2662.60000,   815.30000
    759.02,  2671.60000,   807.70000
    759.48,  2687.80000,   798.00000
    759.94,  2711.10000,   795.40000
    760.40,  2712.90000,   803.00000
    760.86,  2704.60000,   804.10000
    761.32,  2700.30000,   807.70000
    761.78,  2731.00000,   802.40000
    762.24,  2713.30000,   799.10000
    762.70,  2716.00000,   801.30000
    763.15,  2698.10000,   805.20000
    763.61,  2698.90000,   811.30000
    764.07,  2714.80000,   850.60000
    764.53,  2717.80000,   874.00000
    764.99,  2719.40000,   881.20000
    765.45,  2738.60000,   862.00000
    765.91,  2716.20000,   837.80000
    766.37,  2702.70000,   805.30000
    766.83,  2682.00000,   807.60000
    767.29,  2679.10000,   801.40000
    767.75,  2690.60000,   797.80000
    768.21,  2713.90000,   797.70000
    768.66,  2719.50000,   802.10000
    769.12,  2728.20000,   804.40000
    769.58,  2697.70000,   818.30000
    770.04,  2682.20000,   822.00000
    770.50,  2661.90000,   819.10000
    770.96,  2653.10000,   821.30000
    771.42,  2679.10000,   820.40000
    771.88,  2696.60000,   817.60000
    772.34,  2700.50000,   819.00000
    772.80,  2688.90000,   821.10000
    773.25,  2670.20000,   818.50000
    773.71,  2665.90000,   817.20000
    774.17,  2654.80000,   823.00000
    774.63,  2677.90000,   812.70000
    775.09,  2692.90000,   817.20000
    775.55,  2683.20000,   821.60000
    776.01,  2652.10000,   823.00000
    776.47,  2653.10000,   816.90000
    776.92,  2629.20000,   814.60000
    777.38,  2661.40000,   804.00000
    777.84,  2669.50000,   808.90000
    778.30,  2667.60000,   815.70000
    778.76,  2652.70000,   819.20000
    779.22,  2678.80000,   814.30000
    779.68,  2682.40000,   810.10000
    780.13,  2695.90000,   803.50000
    780.59,  2683.70000,   801.60000
    781.05,  2662.30000,   813.30000
    781.51,  2659.30000,   819.50000
    781.97,  2675.80000,   817.20000
    782.43,  2683.30000,   811.50000
    782.88,  2704.30000,   805.20000
    783.34,  2698.30000,   809.10000
    783.80,  2701.80000,   801.90000
    784.26,  2716.60000,   805.30000
    784.72,  2700.00000,   805.50000
    785.18,  2683.70000,   807.70000
    785.63,  2670.70000,   808.00000
    786.09,  2690.30000,   804.70000
    786.55,  2731.00000,   791.10000
    787.01,  2754.70000,   793.90000
    787.47,  2734.30000,   790.50000
    787.92,  2696.60000,   801.30000
    788.38,  2663.70000,   805.50000
    788.84,  2655.80000,   805.40000
    789.30,  2668.10000,   811.50000
    789.76,  2681.80000,   809.10000
    790.21,  2681.10000,   811.70000
    790.67,  2663.90000,   817.90000
    791.13,  2664.70000,   819.50000
    791.59,  2645.70000,   813.50000
    792.05,  2652.40000,   805.00000
    792.50,  2671.20000,   797.10000
    792.96,  2689.20000,   811.60000
    793.42,  2668.80000,   809.60000
    793.88,  2681.90000,   810.00000
    794.33,  2659.80000,   796.90000
    794.79,  2663.00000,   792.70000
    795.25,  2665.60000,   794.80000
    795.71,  2678.10000,   797.10000
    796.17,  2680.20000,   800.50000
    796.62,  2686.40000,   809.80000
    797.08,  2661.60000,   806.40000
    797.54,  2655.40000,   815.40000
    798.00,  2647.10000,   813.50000
    798.45,  2661.00000,   801.20000
    798.91,  2677.80000,   797.30000
    799.37,  2687.10000,   794.20000
    799.83,  2680.70000,   799.00000
    800.28,  2663.10000,   803.20000
    800.74,  2651.20000,   802.60000
    801.20,  2671.60000,   794.90000
    801.66,  2658.30000,   785.20000
    802.11,  2669.10000,   785.50000
    802.57,  2680.30000,   795.60000
    803.03,  2656.60000,   801.00000
    803.48,  2638.90000,   797.40000
    803.94,  2698.10000,   801.80000
    804.40,  2716.40000,   801.20000
    804.86,  2743.00000,   802.70000
    805.31,  2729.10000,   802.00000
    805.77,  2677.80000,   803.10000
    806.23,  2618.20000,   797.70000
    806.69,  2643.10000,   803.20000
    807.14,  2650.10000,   793.40000
    807.60,  2674.30000,   789.50000
    808.06,  2676.50000,   794.10000
    808.51,  2672.30000,   807.50000
    808.97,  2640.90000,   810.60000
    809.43,  2646.00000,   810.00000
    809.88,  2643.60000,   801.70000
    810.34,  2636.10000,   797.20000
    810.80,  2657.80000,   796.70000
    811.26,  2669.20000,   804.50000
    811.71,  2658.20000,   794.60000
    812.17,  2685.60000,   785.40000
    812.63,  2675.50000,   784.80000
    813.08,  2650.20000,   784.00000
    813.54,  2654.40000,   787.40000
    814.00,  2660.90000,   791.50000
    814.45,  2654.30000,   796.20000
    814.91,  2678.10000,   794.70000
    815.37,  2660.70000,   789.70000
    815.82,  2649.90000,   780.40000
    816.28,  2642.80000,   775.40000
    816.74,  2653.50000,   765.70000
    817.19,  2623.20000,   773.90000
    817.65,  2641.70000,   781.30000
    818.11,  2665.00000,   779.10000
    818.56,  2670.30000,   779.20000
    819.02,  2665.10000,   778.30000
    819.48,  2665.60000,   777.90000
    819.93,  2618.30000,   781.70000
    820.39,  2644.30000,   784.00000
    820.84,  2680.40000,   779.10000
    821.30,  2692.80000,   783.20000
    821.76,  2697.60000,   787.00000
    822.21,  2697.00000,   795.60000
    822.67,  2669.80000,   794.80000
    823.13,  2635.10000,   797.20000
    823.58,  2664.90000,   791.40000
    824.04,  2685.60000,   793.60000
    824.49,  2688.70000,   783.80000
    824.95,  2694.70000,   780.80000
    825.41,  2697.10000,   773.20000
    825.86,  2676.90000,   759.90000
    826.32,  2706.90000,   764.60000
    826.78,  2689.40000,   770.20000
    827.23,  2655.70000,   773.00000
    827.69,  2636.10000,   772.10000
    828.14,  2633.10000,   773.30000
    828.60,  2656.50000,   762.50000
    829.06,  2679.80000,   767.90000
    829.51,  2677.40000,   761.20000
    829.97,  2684.50000,   762.50000
    830.42,  2688.60000,   754.30000
    830.88,  2671.00000,   760.00000
    831.34,  2659.80000,   765.30000
    831.79,  2680.90000,   764.70000
    832.25,  2681.00000,   765.20000
    832.70,  2682.10000,   762.50000
    833.16,  2690.60000,   752.00000
    833.61,  2676.50000,   760.30000
    834.07,  2663.10000,   767.40000
    834.53,  2671.30000,   758.80000
    834.98,  2662.20000,   756.20000
    835.44,  2653.20000,   744.20000
    835.89,  2667.40000,   733.40000
    836.35,  2675.60000,   741.90000
    836.80,  2690.50000,   759.60000
    837.26,  2675.00000,   766.70000
    837.71,  2650.40000,   770.60000
    838.17,  2642.40000,   768.30000
    838.63,  2641.30000,   763.40000
    839.08,  2647.60000,   750.90000
    839.54,  2667.90000,   748.00000
    839.99,  2656.70000,   753.60000
    840.45,  2662.20000,   755.20000
    840.90,  2682.40000,   753.60000
    841.36,  2692.30000,   756.90000
    841.81,  2687.80000,   757.10000
    842.27,  2677.60000,   759.20000
    842.72,  2651.00000,   764.40000
    843.18,  2649.10000,   764.50000
    843.63,  2632.30000,   757.60000
    844.09,  2632.60000,   751.40000
    844.55,  2628.20000,   744.30000
    845.00,  2626.80000,   743.40000
    845.46,  2642.50000,   738.50000
    845.91,  2654.40000,   745.20000
    846.37,  2665.10000,   749.20000
    846.82,  2685.40000,   754.10000
    847.28,  2688.10000,   757.30000
    847.73,  2633.50000,   766.80000
    848.19,  2664.10000,   753.90000
    848.64,  2673.20000,   743.60000
    849.10,  2697.50000,   734.20000
    849.55,  2701.80000,   735.20000
    850.01,  2692.00000,   740.10000
    850.46,  2634.60000,   752.80000
    850.92,  2665.20000,   752.10000
    851.37,  2678.40000,   742.70000
    851.83,  2681.20000,   738.90000
    852.28,  2679.10000,   738.10000
    852.73,  2655.50000,   738.00000
    853.19,  2623.90000,   739.20000
    853.64,  2624.70000,   744.80000
    854.10,  2632.20000,   745.50000
    854.55,  2640.60000,   752.10000
    855.01,  2652.70000,   752.80000
    855.46,  2633.90000,   748.40000
    855.92,  2628.40000,   737.80000
    856.37,  2624.60000,   737.10000
    856.83,  2621.50000,   736.90000
    857.28,  2641.60000,   742.80000
    857.74,  2642.60000,   748.10000
    858.19,  2640.00000,   749.00000
    858.64,  2662.20000,   745.40000
    859.10,  2653.00000,   744.70000
    859.55,  2628.20000,   745.00000
    860.01,  2679.80000,   745.00000
    860.46,  2706.70000,   742.60000
    860.92,  2703.10000,   744.50000
    861.37,  2702.60000,   745.90000
    861.83,  2701.20000,   738.60000
    862.28,  2669.90000,   734.30000
    862.73,  2687.50000,   729.60000
    863.19,  2678.90000,   732.20000
    863.64,  2654.60000,   741.70000
    864.10,  2640.40000,   756.00000
    864.55,  2663.70000,   758.70000
    865.01,  2663.90000,   754.00000
    865.46,  2678.80000,   748.10000
    865.91,  2660.30000,   748.90000
    866.37,  2651.00000,   743.00000
    866.82,  2638.00000,   747.60000
    867.28,  2628.50000,   756.00000
    867.73,  2617.10000,   759.50000
    868.18,  2648.40000,   755.60000
    868.64,  2654.20000,   752.60000
    869.09,  2685.20000,   741.80000
    869.55,  2693.90000,   751.40000
    870.00,  2684.00000,   749.20000
    870.45,  2671.60000,   743.20000
    870.91,  2639.20000,   750.90000
    871.36,  2615.20000,   748.80000
    871.81,  2636.70000,   741.80000
    872.27,  2660.80000,   750.50000
    872.72,  2670.60000,   738.70000
    873.18,  2669.50000,   737.40000
    873.63,  2636.40000,   751.50000
    874.08,  2625.30000,   752.30000
    874.54,  2638.40000,   754.60000
    874.99,  2640.10000,   756.20000
    875.44,  2623.80000,   752.80000
    875.90,  2606.10000,   760.40000
    876.35,  2609.60000,   760.40000
    876.81,  2643.90000,   761.10000
    877.26,  2672.50000,   761.10000
    877.71,  2665.80000,   758.20000
    878.17,  2641.30000,   760.30000
    878.62,  2662.00000,   763.20000
    879.07,  2680.20000,   758.70000
    879.53,  2704.90000,   753.80000
    879.98,  2697.50000,   746.00000
    880.43,  2682.00000,   741.70000
    880.89,  2660.10000,   750.70000
    881.34,  2661.90000,   751.10000
    881.79,  2669.50000,   746.20000
    882.25,  2663.40000,   741.50000
    882.70,  2644.60000,   742.00000
    883.15,  2632.60000,   742.20000
    883.61,  2644.10000,   753.40000
    884.06,  2622.80000,   760.10000
    884.51,  2643.80000,   755.60000
    884.97,  2628.40000,   752.80000
    885.42,  2641.10000,   751.10000
    885.87,  2639.70000,   750.80000
    886.32,  2658.80000,   751.80000
    886.78,  2630.30000,   760.70000
    887.23,  2643.90000,   750.40000
    887.68,  2632.30000,   750.00000
    888.14,  2646.30000,   748.00000
    888.59,  2629.50000,   763.70000
    889.04,  2612.10000,   772.00000
    889.50,  2580.00000,   779.90000
    889.95,  2604.70000,   769.20000
    890.40,  2637.00000,   760.60000
    890.85,  2662.30000,   751.80000
    891.31,  2653.00000,   755.90000
    891.76,  2649.10000,   758.00000
    892.21,  2626.50000,   760.00000
    892.67,  2636.10000,   763.10000
    893.12,  2634.30000,   761.60000
    893.57,  2639.20000,   772.50000
    894.02,  2640.40000,   778.60000
    894.48,  2661.40000,   775.50000
    894.93,  2654.40000,   778.10000
    895.38,  2658.30000,   772.30000
    895.83,  2638.00000,   767.60000
    896.29,  2644.50000,   764.80000
    896.74,  2639.00000,   759.50000
    897.19,  2658.90000,   757.70000
    897.64,  2659.60000,   762.10000
    898.10,  2662.30000,   765.90000
    898.55,  2636.20000,   778.90000
    899.00,  2633.20000,   784.10000
    899.45,  2599.50000,   785.60000
    899.91,  2594.40000,   781.80000
    900.36,  2579.20000,   775.90000
    900.81,  2615.70000,   771.70000
    901.26,  2635.90000,   766.00000
    901.72,  2661.50000,   773.70000
    902.17,  2653.10000,   774.50000
    902.62,  2658.30000,   770.00000
    903.07,  2620.20000,   777.20000
    903.52,  2632.60000,   783.00000
    903.98,  2638.90000,   779.70000
    904.43,  2647.10000,   784.80000
    904.88,  2637.00000,   794.10000
    905.33,  2641.40000,   798.10000
    905.79,  2616.40000,   811.60000
    906.24,  2622.70000,   811.30000
    906.69,  2638.00000,   798.70000
    907.14,  2634.40000,   793.70000
    907.59,  2609.90000,   799.10000
    908.05,  2599.50000,   799.10000
    908.50,  2581.90000,   809.10000
    908.95,  2595.10000,   808.40000
    909.40,  2609.10000,   804.30000
    909.85,  2607.40000,   802.00000
    910.31,  2616.10000,   797.80000
    910.76,  2607.00000,   792.90000
    911.21,  2595.10000,   793.60000
    911.66,  2591.90000,   799.50000
    912.11,  2585.60000,   807.90000
    912.56,  2607.30000,   815.70000
    913.02,  2636.20000,   820.50000
    913.47,  2628.50000,   823.30000
    913.92,  2619.20000,   834.50000
    914.37,  2602.80000,   837.00000
    914.82,  2602.60000,   839.90000
    915.27,  2616.50000,   853.60000
    915.73,  2634.50000,   865.40000
    916.18,  2618.30000,   870.60000
    916.63,  2602.00000,   879.30000
    917.08,  2574.10000,   875.50000
    917.53,  2616.70000,   876.50000
    917.98,  2504.60000,   893.60000
    918.44,  2849.70000,   907.40000
    918.89,  3029.40000,   922.50000
    919.34,  3080.10000,   929.00000
    919.79,  2985.00000,   941.00000
    920.24,  2822.90000,   958.90000
    920.69,  2499.00000,   986.90000
    921.14,  2631.00000,  1010.30000
    921.59,  2627.10000,  1035.20000
    922.05,  2621.80000,  1053.30000
    922.50,  2618.90000,  1078.00000
    922.95,  2643.60000,  1099.40000
    923.40,  2660.90000,  1140.30000
    923.85,  2667.50000,  1202.70000
    924.30,  2677.00000,  1272.60000
    924.75,  2660.60000,  1359.70000
    925.20,  2639.50000,  1476.50000
    925.66,  2624.70000,  1606.10000
    926.11,  2620.50000,  1763.50000
    926.56,  2625.40000,  1945.00000
    927.01,  2634.60000,  2159.40000
    927.46,  2631.00000,  2369.10000
    927.91,  2603.60000,  2594.70000
    928.36,  2581.50000,  2836.40000
    928.81,  2594.90000,  3096.00000
    929.26,  2609.90000,  3374.60000
    929.71,  2631.40000,  3679.10000
    930.16,  2657.40000,  3937.70000
    930.62,  2634.30000,  4176.80000
    931.07,  2622.90000,  4422.80000
    931.52,  2624.00000,  4647.50000
    931.97,  2628.40000,  4865.10000
    932.42,  2633.20000,  5066.80000
    932.87,  2644.60000,  5258.40000
    933.32,  2626.40000,  5472.50000
    933.77,  2649.00000,  5713.80000
    934.22,  2645.30000,  5942.00000
    934.67,  2658.70000,  6167.60000
    935.12,  2642.60000,  6385.10000
    935.57,  2614.00000,  6560.50000
    936.02,  2579.00000,  6662.60000
    936.47,  2600.80000,  6681.60000
    936.93,  2581.00000,  6624.80000
    937.38,  2594.00000,  6584.40000
    937.83,  2606.50000,  6590.00000
    938.28,  2602.80000,  6615.70000
    938.73,  2595.60000,  6649.80000
    939.18,  2614.90000,  6696.90000
    939.63,  2615.40000,  6759.10000
    940.08,  2633.80000,  6865.80000
    940.53,  2658.40000,  6977.30000
    940.98,  2653.50000,  7087.70000
    941.43,  2624.70000,  7206.10000
    941.88,  2617.00000,  7317.00000
    942.33,  2616.60000,  7428.00000
    942.78,  2616.60000,  7500.10000
    943.23,  2633.80000,  7552.90000
    943.68,  2634.50000,  7611.50000
    944.13,  2638.60000,  7665.10000
    944.58,  2652.80000,  7744.30000
    945.03,  2647.60000,  7801.60000
    945.48,  2619.10000,  7818.80000
    945.93,  2615.40000,  7880.30000
    946.38,  2616.70000,  8001.80000
    946.83,  2640.60000,  8140.80000
    947.28,  2650.40000,  8292.90000
    947.73,  2643.10000,  8384.10000
    948.18,  2614.60000,  8426.10000
    948.63,  2597.50000,  8410.40000
    949.08,  2599.90000,  8365.20000
    949.53,  2592.80000,  8306.00000
    949.98,  2579.70000,  8240.30000
    950.43,  2585.80000,  8178.20000
    950.88,  2600.00000,  8156.20000
    951.33,  2618.80000,  8073.80000
    951.78,  2652.10000,  7945.40000
    952.23,  2649.20000,  7854.60000
    952.68,  2616.70000,  7826.20000
    953.13,  2615.60000,  7778.40000
    953.58,  2627.20000,  7682.30000
    954.03,  2625.30000,  7527.90000
    954.48,  2621.40000,  7336.70000
    954.93,  2612.10000,  7212.60000
    955.38,  2592.50000,  7131.90000
    955.83,  2600.80000,  7037.20000
    956.28,  2606.90000,  6919.50000
    956.73,  2618.80000,  6818.50000
    957.18,  2627.50000,  6748.40000
    957.62,  2622.30000,  6716.00000
    958.07,  2631.80000,  6687.20000
    958.52,  2618.40000,  6596.10000
    958.97,  2602.40000,  6444.80000
    959.42,  2601.40000,  6237.90000
    959.87,  2596.60000,  6013.60000
    960.32,  2595.90000,  5793.30000
    960.77,  2623.80000,  5594.40000
    961.22,  2664.30000,  5423.20000
    961.67,  2675.50000,  5296.00000
    962.12,  2646.80000,  5234.90000
    962.57,  2620.90000,  5150.00000
    963.02,  2617.10000,  5043.90000
    963.47,  2612.40000,  4871.10000
    963.92,  2643.10000,  4694.80000
    964.36,  2643.30000,  4557.90000
    964.81,  2628.20000,  4462.70000
    965.26,  2630.60000,  4371.60000
    965.71,  2631.70000,  4305.10000
    966.16,  2625.90000,  4244.50000
    966.61,  2610.10000,  4183.30000
    967.06,  2595.60000,  4114.90000
    967.51,  2615.10000,  4003.30000
    967.96,  2626.10000,  3898.30000
    968.41,  2632.20000,  3771.20000
    968.85,  2641.10000,  3649.60000
    969.30,  2626.70000,  3521.40000
    969.75,  2624.00000,  3369.70000
    970.20,  2626.30000,  3196.60000
    970.65,  2631.70000,  3057.50000
    971.10,  2622.70000,  2935.80000
    971.55,  2627.60000,  2833.30000
    972.00,  2614.50000,  2753.80000
    972.44,  2598.00000,  2665.10000
    972.89,  2620.90000,  2565.80000
    973.34,  2645.20000,  2469.50000
    973.79,  2643.40000,  2397.10000
    974.24,  2656.10000,  2327.20000
    974.69,  2633.00000,  2281.90000
    975.14,  2598.10000,  2238.10000
    975.59,  2598.00000,  2202.70000
    976.03,  2585.30000,  2166.40000
    976.48,  2572.70000,  2164.20000
    976.93,  2578.60000,  2159.00000
    977.38,  2578.20000,  2152.90000
    977.83,  2570.50000,  2152.10000
    978.28,  2577.70000,  2147.20000
    978.72,  2591.40000,  2141.20000
    979.17,  2614.00000,  2133.30000
    979.62,  2631.90000,  2126.90000
    980.07,  2640.90000,  2107.50000
    980.52,  2625.80000,  2107.20000
    980.97,  2602.30000,  2095.60000
    981.41,  2561.60000,  2086.80000
    981.86,  2546.60000,  2068.40000
    982.31,  2565.10000,  2046.90000
    982.76,  2579.70000,  2009.70000
    983.21,  2604.90000,  1970.70000
    983.66,  2609.50000,  1910.00000
    984.10,  2584.10000,  1851.50000
    984.55,  2574.00000,  1803.80000
    985.00,  2569.00000,  1769.20000
    985.45,  2552.20000,  1730.90000
    985.90,  2569.70000,  1691.20000
    986.34,  2582.90000,  1649.70000
    986.79,  2564.90000,  1610.70000
    987.24,  2566.30000,  1567.00000
    987.69,  2549.70000,  1524.50000
    988.14,  2547.00000,  1470.20000
    988.58,  2564.80000,  1418.70000
    989.03,  2585.50000,  1375.00000
    989.48,  2589.40000,  1331.10000
    989.93,  2595.50000,  1290.60000
    990.38,  2577.40000,  1261.50000
    990.82,  2580.00000,  1239.10000
    991.27,  2593.10000,  1228.50000
    991.72,  2615.60000,  1217.60000
    992.17,  2599.00000,  1200.90000
    992.61,  2602.70000,  1183.70000
    993.06,  2571.60000,  1170.00000
    993.51,  2596.90000,  1147.20000
    993.96,  2602.00000,  1130.40000
    994.41,  2593.60000,  1116.10000
    994.85,  2570.50000,  1102.70000
    995.30,  2586.00000,  1084.10000
    995.75,  2586.90000,  1066.40000
    996.20,  2633.70000,  1039.00000
    996.64,  2623.50000,  1010.00000
    997.09,  2585.10000,  1004.20000
    997.54,  2567.60000,   996.70000
    997.99,  2552.20000,   987.30000
    998.43,  2550.50000,   982.80000
    998.88,  2557.50000,   970.60000
    999.33,  2565.00000,   959.20000
    999.77,  2583.20000,   968.10000
   1000.22,  2600.30000,   969.30000
   1000.67,  2615.20000,   959.40000
   1001.12,  2621.20000,   948.60000
   1001.56,  2592.70000,   931.30000
   1002.01,  2574.20000,   927.90000
   1002.46,  2582.20000,   933.20000
   1002.91,  2565.80000,   932.30000
   1003.35,  2581.30000,   935.40000
   1003.80,  2580.90000,   928.90000
   1004.25,  2577.10000,   920.00000
   1004.69,  2578.50000,   921.80000
   1005.14,  2568.40000,   914.70000
   1005.59,  2568.60000,   918.00000
   1006.04,  2600.60000,   929.10000
   1006.48,  2616.90000,   926.90000
   1006.93,  2638.00000,   923.60000
   1007.38,  2625.70000,   929.00000
   1007.82,  2581.60000,   920.80000
   1008.27,  2560.30000,   924.80000
   1008.72,  2553.40000,   926.10000
   1009.16,  2551.20000,   927.90000
   1009.61,  2558.30000,   932.60000
   1010.06,  2554.60000,   936.70000
   1010.50,  2587.40000,   926.60000
   1010.95,  2623.20000,   917.40000
   1011.40,  2631.90000,   909.90000
   1011.85,  2606.90000,   909.40000
   1012.29,  2588.90000,   915.20000
   1012.74,  2556.00000,   917.70000
   1013.19,  2560.00000,   909.90000
   1013.63,  2609.70000,   905.90000
   1014.08,  2630.90000,   904.10000
   1014.53,  2621.30000,   903.70000
   1014.97,  2606.80000,   909.90000
   1015.42,  2577.20000,   917.60000
   1015.86,  2544.70000,   918.20000
   1016.31,  2569.60000,   919.60000
   1016.76,  2596.00000,   911.30000
   1017.20,  2589.60000,   900.00000
   1017.65,  2571.50000,   902.10000
   1018.10,  2563.50000,   907.40000
   1018.54,  2543.90000,   920.10000
   1018.99,  2565.30000,   928.50000
   1019.44,  2570.60000,   933.00000
   1019.88,  2559.50000,   937.00000
   1020.33,  2562.10000,   925.60000
   1020.78,  2567.70000,   915.50000
   1021.22,  2583.50000,   905.50000
   1021.67,  2594.00000,   896.20000
   1022.11,  2584.80000,   904.60000
   1022.56,  2578.90000,   920.40000
   1023.01,  2574.60000,   911.40000
   1023.45,  2550.70000,   913.30000
   1023.90,  2554.20000,   902.30000
   1024.34,  2535.90000,   903.80000
   1024.79,  2544.30000,   908.40000
   1025.24,  2565.80000,   917.50000
   1025.68,  2558.70000,   919.90000
   1026.13,  2555.40000,   924.20000
   1026.58,  2563.30000,   917.50000
   1027.02,  2581.70000,   909.10000
   1027.47,  2594.40000,   907.20000
   1027.91,  2596.10000,   908.10000
   1028.36,  2563.00000,   916.40000
   1028.80,  2553.40000,   912.70000
   1029.25,  2526.80000,   921.60000
   1029.70,  2537.40000,   914.30000
   1030.14,  2536.20000,   914.60000
   1030.59,  2534.50000,   923.60000
   1031.03,  2538.10000,   925.20000
   1031.48,  2550.00000,   925.40000
   1031.93,  2570.60000,   937.70000
   1032.37,  2600.80000,   935.80000
   1032.82,  2602.90000,   928.50000
   1033.26,  2607.90000,   928.20000
   1033.71,  2587.30000,   918.20000
   1034.15,  2570.90000,   926.10000
   1034.60,  2568.50000,   930.00000
   1035.05,  2580.80000,   931.50000
   1035.49,  2568.40000,   933.60000
   1035.94,  2566.00000,   931.80000
   1036.38,  2533.50000,   928.30000
   1036.83,  2520.50000,   924.40000
   1037.27,  2507.80000,   924.70000
   1037.72,  2510.00000,   927.60000
   1038.16,  2609.20000,   946.10000
   1038.61,  2681.40000,   950.80000
   1039.05,  2693.50000,   942.80000
   1039.50,  2688.20000,   929.50000
   1039.95,  2631.00000,   919.20000
   1040.39,  2559.80000,   926.40000
   1040.84,  2568.10000,   941.80000
   1041.28,  2568.80000,   944.00000
   1041.73,  2565.00000,   944.10000
   1042.17,  2567.30000,   947.40000
   1042.62,  2566.90000,   944.70000
   1043.06,  2572.30000,   955.80000
   1043.51,  2554.20000,   951.90000
   1043.95,  2569.40000,   942.30000
   1044.40,  2568.60000,   945.50000
   1044.84,  2551.10000,   945.10000
   1045.29,  2544.60000,   946.20000
   1045.73,  2545.70000,   956.00000
   1046.18,  2529.00000,   960.70000
   1046.62,  2527.50000,   959.00000
   1047.07,  2521.90000,   963.00000
   1047.51,  2501.40000,   960.00000
   1047.96,  2532.40000,   955.80000
   1048.40,  2575.60000,   952.80000
   1048.85,  2591.80000,   952.80000
   1049.29,  2581.20000,   957.80000
   1049.74,  2541.60000,   962.20000
   1050.18,  2506.60000,   965.40000
   1050.63,  2516.60000,   965.70000
   1051.07,  2532.30000,   960.50000
   1051.52,  2548.10000,   963.50000
   1051.96,  2533.40000,   972.70000
   1052.41,  2514.70000,   970.70000
   1052.85,  2515.30000,   974.20000
   1053.30,  2516.60000,   969.40000
   1053.74,  2517.20000,   970.00000
   1054.18,  2523.10000,   974.20000
   1054.63,  2500.60000,   984.80000
   1055.07,  2495.90000,   982.30000
   1055.52,  2490.00000,   987.90000
   1055.96,  2483.30000,   990.00000
   1056.41,  2477.40000,   995.70000
   1056.85,  2475.40000,   997.00000
   1057.30,  2476.30000,  1001.70000
   1057.74,  2479.80000,   989.70000
   1058.18,  2480.40000,   988.80000
   1058.63,  2450.10000,   991.00000
   1059.07,  2449.20000,   992.90000
   1059.52,  2460.00000,   994.30000
   1059.96,  2467.20000,   993.90000
   1060.41,  2468.10000,   993.10000
   1060.85,  2479.70000,   994.80000
   1061.30,  2465.00000,  1003.60000
   1061.74,  2461.30000,  1011.90000
   1062.18,  2456.50000,  1014.20000
   1062.63,  2429.90000,  1019.30000
   1063.07,  2422.00000,  1018.20000
   1063.52,  2427.20000,  1012.10000
   1063.96,  2450.40000,  1013.20000
   1064.40,  2459.10000,  1014.00000
   1064.85,  2453.80000,  1015.90000
   1065.29,  2430.10000,  1022.10000
   1065.74,  2414.70000,  1021.90000
   1066.18,  2385.00000,  1024.90000
