2D Measure spectrum data V5.74

<< MEASURE 1 >>
Data count = 2048
Exposure time = 30000 msec
Average = 10
Inspected time = 2020/10/23 17:55

Wave-dcm-1,Dark spec.  ,Spectrum
    108.17,  2234.00000,   763.10000
    108.66,  2245.80000,   754.10000
    109.15,  2264.40000,   750.60000
    109.65,  2282.90000,   732.50000
    110.14,  2293.30000,   720.80000
    110.63,  2301.90000,   724.00000
    111.13,  2291.00000,   719.60000
    111.62,  2297.20000,   708.00000
    112.11,  2316.50000,   702.90000
    112.60,  2315.80000,   675.00000
    113.10,  2332.00000,   670.90000
    113.59,  2354.80000,   663.30000
    114.08,  2350.30000,   656.50000
    114.58,  2385.00000,   658.70000
    115.07,  2405.20000,   651.80000
    115.56,  2396.30000,   655.20000
    116.06,  2393.90000,   664.10000
    116.55,  2388.90000,   660.10000
    117.04,  2367.70000,   665.40000
    117.53,  2393.10000,   672.40000
    118.03,  2405.00000,   667.50000
    118.52,  2400.80000,   670.80000
    119.01,  2469.80000,   688.50000
    119.51,  2562.30000,   691.20000
    120.00,  2604.90000,   690.20000
    120.49,  2609.70000,   693.90000
    120.98,  2540.10000,   696.50000
    121.48,  2439.00000,   698.60000
    121.97,  2407.20000,   725.30000
    122.46,  2427.50000,   746.10000
    122.95,  2460.50000,   761.80000
    123.45,  2477.00000,   772.40000
    123.94,  2498.40000,   785.20000
    124.43,  2524.40000,   791.00000
    124.92,  2530.80000,   787.20000
    125.42,  2541.00000,   803.40000
    125.91,  2541.00000,   810.50000
    126.40,  2523.80000,   817.20000
    126.89,  2513.10000,   831.00000
    127.39,  2505.10000,   840.80000
    127.88,  2507.60000,   848.40000
    128.37,  2522.50000,   865.60000
    128.86,  2518.80000,   872.00000
    129.35,  2523.00000,   881.60000
    129.85,  2511.80000,   891.90000
    130.34,  2513.40000,   901.50000
    130.83,  2520.50000,   920.60000
    131.32,  2520.50000,   941.90000
    131.81,  2517.60000,   945.60000
    132.31,  2522.10000,   943.70000
    132.80,  2514.80000,   936.40000
    133.29,  2524.30000,   934.70000
    133.78,  2537.80000,   945.20000
    134.27,  2543.50000,   954.70000
    134.77,  2556.10000,   968.50000
    135.26,  2561.50000,   964.20000
    135.75,  2572.10000,   975.50000
    136.24,  2569.00000,   968.30000
    136.73,  2582.50000,   984.40000
    137.23,  2582.30000,   984.80000
    137.72,  2576.80000,  1000.70000
    138.21,  2568.40000,  1002.10000
    138.70,  2585.10000,  1023.40000
    139.19,  2582.30000,  1012.70000
    139.68,  2585.60000,  1026.20000
    140.18,  2594.80000,  1034.00000
    140.67,  2596.10000,  1040.90000
    141.16,  2587.40000,  1039.60000
    141.65,  2586.90000,  1047.10000
    142.14,  2604.50000,  1049.40000
    142.63,  2612.70000,  1044.10000
    143.13,  2642.50000,  1058.50000
    143.62,  2645.20000,  1058.00000
    144.11,  2609.20000,  1062.20000
    144.60,  2590.30000,  1075.60000
    145.09,  2629.30000,  1109.90000
    145.58,  2652.90000,  1108.20000
    146.07,  2670.00000,  1120.60000
    146.56,  2667.00000,  1117.10000
    147.06,  2641.90000,  1119.70000
    147.55,  2603.70000,  1117.10000
    148.04,  2619.10000,  1143.40000
    148.53,  2599.80000,  1144.30000
    149.02,  2648.00000,  1186.80000
    149.51,  2700.00000,  1195.60000
    150.00,  2732.40000,  1200.50000
    150.49,  2737.80000,  1204.70000
    150.99,  2725.50000,  1214.50000
    151.48,  2656.70000,  1229.20000
    151.97,  2651.50000,  1265.20000
    152.46,  2636.10000,  1285.30000
    152.95,  2629.00000,  1314.70000
    153.44,  2637.80000,  1343.60000
    153.93,  2653.60000,  1371.80000
    154.42,  2643.70000,  1376.50000
    154.91,  2633.20000,  1379.40000
    155.40,  2623.70000,  1375.00000
    155.89,  2638.10000,  1377.30000
    156.39,  2621.90000,  1371.90000
    156.88,  2624.80000,  1391.60000
    157.37,  2627.10000,  1399.80000
    157.86,  2627.80000,  1413.90000
    158.35,  2646.30000,  1421.70000
    158.84,  2694.90000,  1430.30000
    159.33,  2708.00000,  1444.00000
    159.82,  2721.30000,  1474.40000
    160.31,  2744.60000,  1505.00000
    160.80,  2715.70000,  1505.30000
    161.29,  2682.80000,  1521.70000
    161.78,  2660.30000,  1519.70000
    162.27,  2649.40000,  1532.70000
    162.76,  2664.30000,  1538.70000
    163.25,  2692.60000,  1551.90000
    163.74,  2702.10000,  1557.20000
    164.23,  2718.30000,  1584.80000
    164.72,  2698.10000,  1585.70000
    165.21,  2681.40000,  1594.50000
    165.70,  2707.30000,  1620.00000
    166.20,  2725.70000,  1640.10000
    166.69,  2734.60000,  1663.90000
    167.18,  2734.80000,  1694.60000
    167.67,  2710.40000,  1694.10000
    168.16,  2677.30000,  1680.50000
    168.65,  2693.00000,  1696.90000
    169.14,  2694.60000,  1685.00000
    169.63,  2687.70000,  1680.50000
    170.12,  2677.20000,  1684.30000
    170.61,  2714.70000,  1688.00000
    171.10,  2728.90000,  1657.20000
    171.59,  2738.30000,  1647.10000
    172.08,  2735.40000,  1636.50000
    172.57,  2734.90000,  1630.60000
    173.06,  2724.10000,  1626.90000
    173.55,  2709.70000,  1627.80000
    174.04,  2699.20000,  1634.10000
    174.53,  2692.30000,  1637.90000
    175.02,  2707.10000,  1661.80000
    175.50,  2740.60000,  1668.80000
    175.99,  2763.20000,  1673.20000
    176.48,  2748.10000,  1667.10000
    176.97,  2742.10000,  1674.50000
    177.46,  2725.30000,  1659.10000
    177.95,  2713.20000,  1654.30000
    178.44,  2698.20000,  1649.70000
    178.93,  2707.20000,  1644.90000
    179.42,  2714.00000,  1637.50000
    179.91,  2718.20000,  1626.40000
    180.40,  2726.60000,  1623.80000
    180.89,  2721.00000,  1619.80000
    181.38,  2713.10000,  1635.00000
    181.87,  2714.60000,  1646.20000
    182.36,  2687.20000,  1659.50000
    182.85,  2695.60000,  1678.10000
    183.34,  2711.00000,  1676.10000
    183.83,  2706.30000,  1671.20000
    184.32,  2745.90000,  1672.30000
    184.81,  2750.70000,  1652.70000
    185.29,  2722.40000,  1640.90000
    185.78,  2728.00000,  1629.80000
    186.27,  2725.30000,  1608.80000
    186.76,  2698.70000,  1599.30000
    187.25,  2756.80000,  1624.50000
    187.74,  2787.30000,  1612.20000
    188.23,  2804.80000,  1610.90000
    188.72,  2804.20000,  1593.70000
    189.21,  2779.40000,  1587.80000
    189.70,  2745.80000,  1591.20000
    190.19,  2727.80000,  1611.10000
    190.67,  2720.90000,  1612.70000
    191.16,  2722.60000,  1613.90000
    191.65,  2718.60000,  1608.50000
    192.14,  2731.20000,  1611.90000
    192.63,  2748.80000,  1609.90000
    193.12,  2730.00000,  1615.20000
    193.61,  2740.80000,  1620.70000
    194.10,  2740.90000,  1615.40000
    194.59,  2736.70000,  1619.10000
    195.07,  2740.20000,  1617.40000
    195.56,  2728.60000,  1611.40000
    196.05,  2713.90000,  1624.90000
    196.54,  2733.20000,  1630.60000
    197.03,  2774.20000,  1629.40000
    197.52,  2794.10000,  1610.50000
    198.01,  2801.00000,  1596.30000
    198.49,  2791.60000,  1589.60000
    198.98,  2751.60000,  1589.60000
    199.47,  2732.30000,  1589.10000
    199.96,  2742.60000,  1581.90000
    200.45,  2731.90000,  1564.40000
    200.94,  2731.80000,  1562.20000
    201.43,  2725.90000,  1554.20000
    201.91,  2713.70000,  1553.80000
    202.40,  2716.80000,  1545.00000
    202.89,  2738.00000,  1540.70000
    203.38,  2740.70000,  1536.50000
    203.87,  2732.00000,  1537.60000
    204.36,  2727.80000,  1539.20000
    204.84,  2738.90000,  1535.20000
    205.33,  2756.10000,  1528.40000
    205.82,  2759.00000,  1523.70000
    206.31,  2754.30000,  1527.40000
    206.80,  2758.30000,  1537.00000
    207.28,  2764.10000,  1541.50000
    207.77,  2770.40000,  1549.70000
    208.26,  2781.30000,  1538.90000
    208.75,  2768.50000,  1529.40000
    209.24,  2774.20000,  1536.40000
    209.72,  2784.90000,  1529.50000
    210.21,  2767.90000,  1521.80000
    210.70,  2776.80000,  1534.20000
    211.19,  2790.70000,  1539.40000
    211.68,  2795.40000,  1546.10000
    212.16,  2800.40000,  1556.40000
    212.65,  2780.50000,  1554.00000
    213.14,  2764.90000,  1556.00000
    213.63,  2753.00000,  1544.00000
    214.12,  2759.60000,  1557.30000
    214.60,  2780.40000,  1559.80000
    215.09,  2783.00000,  1561.20000
    215.58,  2771.80000,  1562.90000
    216.07,  2776.70000,  1561.60000
    216.55,  2728.10000,  1543.60000
    217.04,  2705.40000,  1573.70000
    217.53,  2704.50000,  1585.30000
    218.02,  2711.30000,  1595.50000
    218.50,  2729.00000,  1604.80000
    218.99,  2759.00000,  1604.60000
    219.48,  2740.50000,  1605.50000
    219.97,  2740.80000,  1624.60000
    220.45,  2732.60000,  1639.90000
    220.94,  2744.80000,  1656.20000
    221.43,  2762.70000,  1676.10000
    221.92,  2765.60000,  1691.90000
    222.40,  2755.10000,  1710.90000
    222.89,  2771.30000,  1720.80000
    223.38,  2783.60000,  1741.90000
    223.86,  2808.40000,  1752.00000
    224.35,  2818.50000,  1766.30000
    224.84,  2803.20000,  1784.40000
    225.33,  2772.80000,  1802.80000
    225.81,  2754.50000,  1823.90000
    226.30,  2749.70000,  1843.60000
    226.79,  2745.40000,  1850.70000
    227.27,  2747.10000,  1865.50000
    227.76,  2767.50000,  1878.00000
    228.25,  2781.50000,  1886.00000
    228.74,  2801.80000,  1901.10000
    229.22,  2797.80000,  1902.40000
    229.71,  2783.30000,  1890.50000
    230.20,  2772.40000,  1878.10000
    230.68,  2771.10000,  1844.90000
    231.17,  2747.80000,  1819.50000
    231.66,  2744.50000,  1799.10000
    232.14,  2727.50000,  1783.20000
    232.63,  2741.70000,  1763.70000
    233.12,  2763.00000,  1744.10000
    233.60,  2757.70000,  1703.60000
    234.09,  2746.10000,  1682.10000
    234.58,  2750.90000,  1645.40000
    235.06,  2742.30000,  1618.90000
    235.55,  2739.50000,  1585.00000
    236.04,  2754.10000,  1564.50000
    236.52,  2740.30000,  1546.00000
    237.01,  2763.60000,  1550.90000
    237.50,  2767.40000,  1528.80000
    237.98,  2803.80000,  1533.30000
    238.47,  2820.40000,  1505.40000
    238.96,  2819.20000,  1479.20000
    239.44,  2816.80000,  1465.40000
    239.93,  2789.30000,  1443.40000
    240.41,  2735.50000,  1417.50000
    240.90,  2740.70000,  1427.20000
    241.39,  2774.80000,  1424.20000
    241.87,  2795.50000,  1415.60000
    242.36,  2828.80000,  1424.30000
    242.85,  2822.80000,  1425.50000
    243.33,  2793.00000,  1419.60000
    243.82,  2760.70000,  1418.40000
    244.30,  2774.00000,  1414.90000
    244.79,  2771.60000,  1395.40000
    245.28,  2763.50000,  1397.60000
    245.76,  2746.50000,  1405.70000
    246.25,  2754.30000,  1413.30000
    246.74,  2773.40000,  1414.50000
    247.22,  2789.60000,  1392.50000
    247.71,  2778.50000,  1380.90000
    248.19,  2776.00000,  1374.90000
    248.68,  2746.30000,  1375.40000
    249.16,  2762.00000,  1399.40000
    249.65,  2779.00000,  1403.60000
    250.14,  2769.20000,  1389.10000
    250.62,  2741.30000,  1393.20000
    251.11,  2731.10000,  1389.30000
    251.59,  2714.70000,  1395.10000
    252.08,  2717.00000,  1406.30000
    252.57,  2723.40000,  1400.30000
    253.05,  2756.90000,  1396.50000
    253.54,  2786.30000,  1379.50000
    254.02,  2806.60000,  1369.00000
    254.51,  2809.60000,  1354.60000
    254.99,  2778.30000,  1345.40000
    255.48,  2744.10000,  1347.50000
    255.96,  2755.40000,  1352.60000
    256.45,  2770.10000,  1346.50000
    256.94,  2774.10000,  1349.80000
    257.42,  2781.50000,  1347.30000
    257.91,  2780.30000,  1343.40000
    258.39,  2759.50000,  1347.10000
    258.88,  2768.60000,  1344.50000
    259.36,  2771.30000,  1336.40000
    259.85,  2783.80000,  1327.90000
    260.33,  2801.50000,  1329.60000
    260.82,  2817.90000,  1320.20000
    261.30,  2799.70000,  1319.40000
    261.79,  2774.20000,  1335.20000
    262.27,  2753.00000,  1345.50000
    262.76,  2753.90000,  1348.40000
    263.24,  2773.80000,  1357.50000
    263.73,  2772.90000,  1354.00000
    264.22,  2825.80000,  1362.00000
    264.70,  2838.50000,  1377.70000
    265.19,  2891.30000,  1316.00000
    265.67,  2965.40000,  1213.00000
    266.16,  2998.60000,  1159.00000
    266.64,  2936.20000,  1160.40000
    267.13,  2873.60000,  1233.00000
    267.61,  2789.50000,  1336.50000
    268.10,  2751.20000,  1364.30000
    268.58,  2760.20000,  1348.60000
    269.06,  2774.20000,  1351.30000
    269.55,  2782.70000,  1351.70000
    270.03,  2783.30000,  1363.60000
    270.52,  2791.90000,  1381.30000
    271.00,  2791.80000,  1386.70000
    271.49,  2791.20000,  1392.60000
    271.97,  2797.40000,  1397.80000
    272.46,  2794.20000,  1388.80000
    272.94,  2786.00000,  1391.30000
    273.43,  2766.70000,  1390.30000
    273.91,  2753.60000,  1400.70000
    274.40,  2747.30000,  1406.00000
    274.88,  2758.20000,  1401.40000
    275.37,  2749.50000,  1403.90000
    275.85,  2748.80000,  1413.30000
    276.33,  2757.50000,  1429.30000
    276.82,  2769.20000,  1446.30000
    277.30,  2776.50000,  1441.40000
    277.79,  2793.80000,  1434.90000
    278.27,  2799.30000,  1453.60000
    278.76,  2806.40000,  1451.20000
    279.24,  2803.80000,  1460.60000
    279.73,  2793.70000,  1465.80000
    280.21,  2771.60000,  1467.00000
    280.69,  2767.90000,  1478.70000
    281.18,  2781.40000,  1499.10000
    281.66,  2813.40000,  1510.60000
    282.15,  2825.30000,  1500.80000
    282.63,  2816.20000,  1509.80000
    283.11,  2810.40000,  1526.00000
    283.60,  2817.20000,  1536.70000
    284.08,  2803.20000,  1541.70000
    284.57,  2788.50000,  1559.40000
    285.05,  2773.70000,  1561.60000
    285.53,  2749.60000,  1564.10000
    286.02,  2763.40000,  1572.30000
    286.50,  2786.50000,  1569.30000
    286.99,  2782.90000,  1563.70000
    287.47,  2770.10000,  1567.90000
    287.95,  2762.00000,  1595.90000
    288.44,  2756.60000,  1607.90000
    288.92,  2767.30000,  1620.70000
    289.41,  2788.20000,  1624.50000
    289.89,  2797.80000,  1615.80000
    290.37,  2817.20000,  1611.10000
    290.86,  2799.50000,  1608.30000
    291.34,  2774.80000,  1616.00000
    291.82,  2751.50000,  1612.20000
    292.31,  2764.50000,  1607.50000
    292.79,  2768.80000,  1593.80000
    293.28,  2783.60000,  1581.70000
    293.76,  2792.30000,  1574.40000
    294.24,  2794.80000,  1595.30000
    294.73,  2796.20000,  1594.20000
    295.21,  2807.70000,  1587.20000
    295.69,  2783.10000,  1579.90000
    296.18,  2748.90000,  1559.60000
    296.66,  2743.80000,  1551.50000
    297.14,  2754.20000,  1546.40000
    297.63,  2765.30000,  1540.90000
    298.11,  2795.50000,  1517.70000
    298.59,  2802.40000,  1513.30000
    299.08,  2805.40000,  1496.30000
    299.56,  2822.90000,  1500.80000
    300.04,  2832.60000,  1484.90000
    300.53,  2825.70000,  1489.20000
    301.01,  2820.50000,  1466.50000
    301.49,  2793.20000,  1450.40000
    301.98,  2772.70000,  1428.20000
    302.46,  2769.50000,  1425.20000
    302.94,  2769.00000,  1415.70000
    303.42,  2755.90000,  1411.40000
    303.91,  2736.20000,  1407.40000
    304.39,  2738.40000,  1396.10000
    304.87,  2758.90000,  1377.60000
    305.36,  2792.90000,  1361.90000
    305.84,  2827.40000,  1358.80000
    306.32,  2819.30000,  1346.30000
    306.81,  2787.30000,  1361.10000
    307.29,  2777.90000,  1357.30000
    307.77,  2780.10000,  1341.00000
    308.25,  2794.20000,  1320.40000
    308.74,  2794.00000,  1299.60000
    309.22,  2775.80000,  1294.00000
    309.70,  2754.20000,  1307.90000
    310.18,  2753.90000,  1317.40000
    310.67,  2786.50000,  1292.00000
    311.15,  2818.20000,  1262.60000
    311.63,  2838.50000,  1235.90000
    312.12,  2816.90000,  1229.00000
    312.60,  2785.90000,  1223.40000
    313.08,  2752.80000,  1242.20000
    313.56,  2748.80000,  1239.00000
    314.05,  2764.50000,  1245.80000
    314.53,  2814.10000,  1250.00000
    315.01,  2822.50000,  1238.90000
    315.49,  2819.70000,  1234.90000
    315.98,  2791.30000,  1231.00000
    316.46,  2752.90000,  1227.90000
    316.94,  2738.40000,  1228.60000
    317.42,  2748.00000,  1222.10000
    317.90,  2737.80000,  1209.10000
    318.39,  2770.80000,  1220.80000
    318.87,  2799.60000,  1197.10000
    319.35,  2808.00000,  1193.30000
    319.83,  2822.20000,  1191.60000
    320.32,  2830.20000,  1196.80000
    320.80,  2792.10000,  1195.60000
    321.28,  2808.90000,  1216.10000
    321.76,  2819.80000,  1188.60000
    322.24,  2828.30000,  1190.00000
    322.73,  2840.20000,  1183.10000
    323.21,  2845.30000,  1180.70000
    323.69,  2800.40000,  1175.60000
    324.17,  2764.40000,  1177.70000
    324.65,  2760.10000,  1185.60000
    325.14,  2772.00000,  1188.70000
    325.62,  2817.70000,  1190.20000
    326.10,  2844.20000,  1180.80000
    326.58,  2812.10000,  1168.30000
    327.06,  2810.60000,  1173.40000
    327.55,  2831.70000,  1190.00000
    328.03,  2843.90000,  1193.70000
    328.51,  2859.10000,  1210.80000
    328.99,  2854.70000,  1215.70000
    329.47,  2794.00000,  1205.70000
    329.95,  2783.80000,  1216.70000
    330.44,  2753.40000,  1204.70000
    330.92,  2729.70000,  1200.00000
    331.40,  2716.70000,  1205.20000
    331.88,  2730.70000,  1203.40000
    332.36,  2762.40000,  1201.70000
    332.84,  2809.20000,  1197.00000
    333.33,  2825.20000,  1176.30000
    333.81,  2834.00000,  1166.70000
    334.29,  2834.60000,  1154.00000
    334.77,  2819.40000,  1152.50000
    335.25,  2822.50000,  1168.00000
    335.73,  2820.70000,  1170.80000
    336.21,  2815.70000,  1160.10000
    336.69,  2806.50000,  1152.00000
    337.18,  2788.60000,  1139.90000
    337.66,  2763.80000,  1135.80000
    338.14,  2744.80000,  1148.60000
    338.62,  2759.70000,  1165.10000
    339.10,  2797.50000,  1178.50000
    339.58,  2821.20000,  1177.20000
    340.06,  2829.90000,  1176.90000
    340.54,  2817.00000,  1167.70000
    341.03,  2788.10000,  1153.90000
    341.51,  2785.00000,  1139.60000
    341.99,  2787.90000,  1141.40000
    342.47,  2789.70000,  1139.60000
    342.95,  2792.10000,  1134.10000
    343.43,  2788.90000,  1139.30000
    343.91,  2776.40000,  1124.50000
    344.39,  2764.90000,  1119.50000
    344.87,  2767.30000,  1136.30000
    345.35,  2782.30000,  1143.70000
    345.84,  2819.30000,  1147.20000
    346.32,  2837.00000,  1150.10000
    346.80,  2838.50000,  1138.50000
    347.28,  2814.90000,  1127.60000
    347.76,  2803.10000,  1135.70000
    348.24,  2824.70000,  1138.60000
    348.72,  2851.30000,  1134.50000
    349.20,  2839.90000,  1128.90000
    349.68,  2812.50000,  1119.10000
    350.16,  2764.60000,  1115.80000
    350.64,  2736.00000,  1132.30000
    351.12,  2776.30000,  1149.70000
    351.60,  2827.80000,  1153.90000
    352.08,  2859.20000,  1141.70000
    352.56,  2864.50000,  1131.10000
    353.04,  2843.70000,  1125.40000
    353.53,  2817.70000,  1120.90000
    354.01,  2822.50000,  1124.80000
    354.49,  2826.60000,  1121.80000
    354.97,  2820.80000,  1126.50000
    355.45,  2796.50000,  1132.10000
    355.93,  2796.80000,  1146.60000
    356.41,  2792.50000,  1137.20000
    356.89,  2809.30000,  1128.70000
    357.37,  2801.00000,  1109.30000
    357.85,  2787.80000,  1113.00000
    358.33,  2760.90000,  1118.90000
    358.81,  2760.40000,  1135.40000
    359.29,  2776.10000,  1144.30000
    359.77,  2802.60000,  1139.90000
    360.25,  2802.00000,  1133.80000
    360.73,  2798.60000,  1130.00000
    361.21,  2798.90000,  1142.30000
    361.69,  2804.50000,  1141.50000
    362.17,  2813.40000,  1142.80000
    362.65,  2824.60000,  1133.80000
    363.13,  2827.70000,  1130.70000
    363.61,  2805.50000,  1125.30000
    364.09,  2786.40000,  1146.30000
    364.57,  2787.40000,  1148.90000
    365.05,  2767.60000,  1146.30000
    365.53,  2784.40000,  1149.00000
    366.01,  2824.70000,  1138.90000
    366.49,  2805.10000,  1126.90000
    366.97,  2808.10000,  1136.80000
    367.45,  2834.10000,  1140.60000
    367.93,  2825.70000,  1137.50000
    368.41,  2826.20000,  1142.10000
    368.89,  2829.20000,  1144.40000
    369.37,  2785.40000,  1138.30000
    369.85,  2782.70000,  1153.20000
    370.33,  2793.60000,  1164.10000
    370.80,  2799.20000,  1157.90000
    371.28,  2788.20000,  1147.00000
    371.76,  2773.30000,  1148.90000
    372.24,  2781.20000,  1137.10000
    372.72,  2794.30000,  1145.60000
    373.20,  2815.60000,  1158.80000
    373.68,  2832.90000,  1169.90000
    374.16,  2820.10000,  1162.00000
    374.64,  2786.70000,  1169.00000
    375.12,  2807.10000,  1174.00000
    375.60,  2797.90000,  1160.70000
    376.08,  2800.20000,  1158.10000
    376.56,  2800.10000,  1161.90000
    377.04,  2805.60000,  1155.00000
    377.52,  2794.80000,  1153.70000
    377.99,  2809.40000,  1166.80000
    378.47,  2795.50000,  1169.20000
    378.95,  2803.70000,  1182.30000
    379.43,  2803.30000,  1190.80000
    379.91,  2842.40000,  1200.90000
    380.39,  2875.90000,  1189.40000
    380.87,  2877.60000,  1191.90000
    381.35,  2851.80000,  1188.10000
    381.83,  2817.40000,  1182.70000
    382.31,  2773.40000,  1177.80000
    382.79,  2776.30000,  1197.70000
    383.26,  2787.10000,  1196.60000
    383.74,  2783.00000,  1210.10000
    384.22,  2788.50000,  1210.10000
    384.70,  2773.60000,  1205.10000
    385.18,  2776.70000,  1201.50000
    385.66,  2786.50000,  1206.60000
    386.14,  2800.30000,  1208.40000
    386.62,  2806.10000,  1216.40000
    387.09,  2813.60000,  1223.10000
    387.57,  2804.90000,  1227.40000
    388.05,  2804.50000,  1227.40000
    388.53,  2812.30000,  1225.30000
    389.01,  2833.40000,  1228.60000
    389.49,  2830.00000,  1231.40000
    389.97,  2813.60000,  1237.00000
    390.44,  2791.10000,  1242.90000
    390.92,  2773.80000,  1240.80000
    391.40,  2777.10000,  1235.20000
    391.88,  2790.70000,  1232.20000
    392.36,  2794.00000,  1231.30000
    392.84,  2803.80000,  1232.70000
    393.32,  2801.00000,  1241.60000
    393.79,  2848.10000,  1252.30000
    394.27,  2864.70000,  1244.10000
    394.75,  2862.30000,  1244.50000
    395.23,  2842.80000,  1245.90000
    395.71,  2827.50000,  1260.80000
    396.18,  2823.00000,  1274.80000
    396.66,  2855.50000,  1278.20000
    397.14,  2835.90000,  1267.20000
    397.62,  2823.40000,  1273.60000
    398.10,  2809.00000,  1265.10000
    398.58,  2816.20000,  1275.30000
    399.05,  2832.30000,  1278.70000
    399.53,  2832.70000,  1274.10000
    400.01,  2808.40000,  1271.90000
    400.49,  2783.20000,  1273.40000
    400.97,  2749.40000,  1260.90000
    401.44,  2764.40000,  1273.60000
    401.92,  2772.50000,  1278.10000
    402.40,  2790.00000,  1290.60000
    402.88,  2810.80000,  1286.80000
    403.36,  2830.10000,  1283.70000
    403.83,  2806.50000,  1272.60000
    404.31,  2809.70000,  1288.00000
    404.79,  2790.10000,  1286.80000
    405.27,  2770.80000,  1286.80000
    405.74,  2787.50000,  1291.00000
    406.22,  2817.20000,  1276.80000
    406.70,  2817.40000,  1252.60000
    407.18,  2807.30000,  1258.50000
    407.65,  2776.20000,  1255.00000
    408.13,  2773.10000,  1259.10000
    408.61,  2781.80000,  1269.30000
    409.09,  2799.10000,  1249.40000
    409.56,  2819.40000,  1236.90000
    410.04,  2812.60000,  1239.20000
    410.52,  2786.70000,  1232.70000
    411.00,  2773.70000,  1242.10000
    411.47,  2750.90000,  1245.70000
    411.95,  2755.80000,  1241.00000
    412.43,  2765.00000,  1233.30000
    412.91,  2779.60000,  1238.60000
    413.38,  2789.90000,  1233.80000
    413.86,  2791.10000,  1251.40000
    414.34,  2792.70000,  1259.50000
    414.82,  2793.00000,  1259.60000
    415.29,  2801.10000,  1237.80000
    415.77,  2802.20000,  1218.20000
    416.25,  2803.20000,  1205.70000
    416.72,  2800.30000,  1200.40000
    417.20,  2771.40000,  1196.30000
    417.68,  2751.20000,  1215.30000
    418.16,  2771.40000,  1218.20000
    418.63,  2777.90000,  1202.60000
    419.11,  2788.50000,  1202.00000
    419.59,  2772.10000,  1178.30000
    420.06,  2742.90000,  1166.90000
    420.54,  2748.20000,  1179.70000
    421.02,  2774.50000,  1187.30000
    421.50,  2790.30000,  1177.00000
    421.97,  2788.30000,  1169.50000
    422.45,  2780.20000,  1160.60000
    422.93,  2762.80000,  1160.90000
    423.40,  2758.60000,  1157.80000
    423.88,  2762.00000,  1161.60000
    424.36,  2776.00000,  1160.00000
    424.83,  2790.90000,  1157.60000
    425.31,  2836.80000,  1166.20000
    425.79,  2871.60000,  1174.30000
    426.26,  2864.40000,  1155.90000
    426.74,  2850.20000,  1144.20000
    427.22,  2831.40000,  1136.50000
    427.69,  2804.60000,  1130.30000
    428.17,  2788.00000,  1132.70000
    428.65,  2810.10000,  1144.30000
    429.12,  2809.60000,  1132.70000
    429.60,  2820.30000,  1135.10000
    430.08,  2825.90000,  1129.70000
    430.55,  2823.40000,  1125.00000
    431.03,  2813.30000,  1131.30000
    431.50,  2808.50000,  1131.90000
    431.98,  2809.20000,  1136.20000
    432.46,  2798.00000,  1131.60000
    432.93,  2784.20000,  1125.10000
    433.41,  2780.40000,  1119.70000
    433.89,  2786.70000,  1122.80000
    434.36,  2786.20000,  1115.10000
    434.84,  2796.60000,  1131.40000
    435.31,  2797.50000,  1123.70000
    435.79,  2789.70000,  1128.90000
    436.27,  2783.30000,  1128.10000
    436.74,  2789.20000,  1126.60000
    437.22,  2785.10000,  1125.50000
    437.70,  2777.00000,  1135.10000
    438.17,  2773.00000,  1128.90000
    438.65,  2784.20000,  1124.00000
    439.12,  2790.70000,  1117.40000
    439.60,  2801.30000,  1114.90000
    440.08,  2792.80000,  1109.20000
    440.55,  2793.60000,  1132.40000
    441.03,  2786.50000,  1144.80000
    441.50,  2799.90000,  1136.40000
    441.98,  2799.40000,  1127.10000
    442.45,  2788.70000,  1127.10000
    442.93,  2777.70000,  1120.70000
    443.41,  2775.10000,  1132.00000
    443.88,  2771.40000,  1134.90000
    444.36,  2781.50000,  1127.60000
    444.83,  2787.40000,  1124.90000
    445.31,  2762.20000,  1125.80000
    445.78,  2757.10000,  1132.90000
    446.26,  2746.50000,  1126.60000
    446.74,  2761.30000,  1127.40000
    447.21,  2788.60000,  1127.90000
    447.69,  2811.90000,  1125.20000
    448.16,  2798.10000,  1115.50000
    448.64,  2788.80000,  1114.20000
    449.11,  2787.90000,  1113.00000
    449.59,  2784.20000,  1117.20000
    450.06,  2787.40000,  1122.50000
    450.54,  2808.90000,  1135.80000
    451.02,  2818.80000,  1133.70000
    451.49,  2821.60000,  1124.00000
    451.97,  2818.90000,  1116.10000
    452.44,  2799.00000,  1112.30000
    452.92,  2779.80000,  1111.50000
    453.39,  2778.10000,  1126.60000
    453.87,  2783.60000,  1127.90000
    454.34,  2788.80000,  1129.40000
    454.82,  2801.60000,  1128.40000
    455.29,  2811.70000,  1126.40000
    455.77,  2793.30000,  1118.80000
    456.24,  2767.50000,  1123.80000
    456.72,  2760.00000,  1128.50000
    457.19,  2768.00000,  1135.60000
    457.67,  2799.40000,  1130.80000
    458.14,  2806.30000,  1126.60000
    458.62,  2798.10000,  1124.70000
    459.09,  2778.10000,  1126.00000
    459.57,  2776.80000,  1132.60000
    460.04,  2782.80000,  1130.10000
    460.52,  2781.00000,  1123.30000
    460.99,  2773.00000,  1120.10000
    461.47,  2753.20000,  1116.40000
    461.94,  2747.60000,  1116.70000
    462.42,  2761.20000,  1121.50000
    462.89,  2786.60000,  1115.60000
    463.37,  2798.50000,  1116.20000
    463.84,  2808.50000,  1113.90000
    464.32,  2799.60000,  1119.70000
    464.79,  2794.50000,  1129.50000
    465.26,  2777.30000,  1133.30000
    465.74,  2790.30000,  1139.70000
    466.21,  2807.60000,  1127.80000
    466.69,  2820.00000,  1112.90000
    467.16,  2806.80000,  1112.30000
    467.64,  2789.50000,  1113.90000
    468.11,  2778.30000,  1117.90000
    468.59,  2787.10000,  1130.80000
    469.06,  2811.60000,  1131.60000
    469.54,  2821.50000,  1124.10000
    470.01,  2785.30000,  1112.40000
    470.48,  2785.90000,  1122.00000
    470.96,  2810.70000,  1113.50000
    471.43,  2831.60000,  1111.70000
    471.91,  2859.20000,  1121.30000
    472.38,  2842.90000,  1115.90000
    472.86,  2796.10000,  1109.10000
    473.33,  2777.90000,  1124.70000
    473.80,  2785.20000,  1118.10000
    474.28,  2797.40000,  1116.60000
    474.75,  2831.20000,  1126.10000
    475.23,  2837.00000,  1120.90000
    475.70,  2818.30000,  1124.40000
    476.17,  2806.30000,  1130.60000
    476.65,  2799.60000,  1129.90000
    477.12,  2766.10000,  1118.70000
    477.60,  2761.50000,  1129.90000
    478.07,  2774.70000,  1127.10000
    478.54,  2785.30000,  1130.90000
    479.02,  2813.20000,  1133.40000
    479.49,  2825.30000,  1128.90000
    479.97,  2814.70000,  1114.80000
    480.44,  2790.40000,  1117.30000
    480.91,  2783.00000,  1120.40000
    481.39,  2784.90000,  1117.80000
    481.86,  2773.30000,  1110.10000
    482.34,  2779.40000,  1112.10000
    482.81,  2796.60000,  1112.50000
    483.28,  2790.80000,  1109.00000
    483.76,  2806.80000,  1116.50000
    484.23,  2802.60000,  1116.30000
    484.70,  2790.80000,  1119.40000
    485.18,  2792.40000,  1126.40000
    485.65,  2792.00000,  1138.30000
    486.12,  2776.80000,  1136.90000
    486.60,  2776.60000,  1149.70000
    487.07,  2800.90000,  1149.60000
    487.55,  2822.50000,  1148.00000
    488.02,  2827.60000,  1140.80000
    488.49,  2836.30000,  1141.70000
    488.97,  2826.50000,  1135.60000
    489.44,  2789.60000,  1133.60000
    489.91,  2783.10000,  1128.60000
    490.39,  2753.20000,  1120.60000
    490.86,  2719.10000,  1108.90000
    491.33,  2737.30000,  1139.90000
    491.81,  2773.20000,  1147.30000
    492.28,  2769.90000,  1150.60000
    492.75,  2814.70000,  1156.40000
    493.23,  2845.60000,  1141.70000
    493.70,  2858.70000,  1109.20000
    494.17,  2866.60000,  1105.20000
    494.64,  2840.50000,  1097.60000
    495.12,  2823.30000,  1115.80000
    495.59,  2838.00000,  1133.20000
    496.06,  2845.30000,  1144.00000
    496.54,  2832.90000,  1134.40000
    497.01,  2826.20000,  1121.80000
    497.48,  2806.20000,  1118.10000
    497.96,  2820.20000,  1130.50000
    498.43,  2823.90000,  1128.40000
    498.90,  2837.60000,  1137.90000
    499.37,  2820.10000,  1133.00000
    499.85,  2814.10000,  1134.90000
    500.32,  2799.50000,  1128.10000
    500.79,  2803.90000,  1132.30000
    501.27,  2796.10000,  1125.90000
    501.74,  2797.80000,  1124.90000
    502.21,  2786.80000,  1128.30000
    502.68,  2771.30000,  1130.20000
    503.16,  2756.10000,  1125.50000
    503.63,  2766.10000,  1131.70000
    504.10,  2764.10000,  1116.10000
    504.57,  2781.60000,  1116.40000
    505.05,  2803.80000,  1116.20000
    505.52,  2807.20000,  1108.60000
    505.99,  2803.30000,  1106.00000
    506.46,  2791.00000,  1113.70000
    506.94,  2781.80000,  1103.50000
    507.41,  2777.20000,  1113.20000
    507.88,  2774.40000,  1114.90000
    508.35,  2762.70000,  1116.90000
    508.83,  2778.60000,  1129.20000
    509.30,  2789.70000,  1124.40000
    509.77,  2798.70000,  1121.30000
    510.24,  2792.30000,  1108.70000
    510.72,  2784.70000,  1103.10000
    511.19,  2781.30000,  1097.50000
    511.66,  2796.60000,  1101.60000
    512.13,  2789.30000,  1093.60000
    512.60,  2778.60000,  1103.40000
    513.08,  2769.40000,  1108.90000
    513.55,  2755.80000,  1109.40000
    514.02,  2750.20000,  1110.50000
    514.49,  2756.60000,  1106.70000
    514.97,  2771.10000,  1107.40000
    515.44,  2777.10000,  1097.60000
    515.91,  2781.20000,  1102.90000
    516.38,  2759.40000,  1094.20000
    516.85,  2736.40000,  1099.00000
    517.33,  2734.10000,  1099.60000
    517.80,  2754.20000,  1116.80000
    518.27,  2791.00000,  1117.50000
    518.74,  2816.00000,  1116.50000
    519.21,  2807.00000,  1106.60000
    519.68,  2780.10000,  1106.20000
    520.16,  2763.30000,  1105.90000
    520.63,  2752.70000,  1115.00000
    521.10,  2773.20000,  1116.80000
    521.57,  2786.50000,  1099.20000
    522.04,  2788.10000,  1093.80000
    522.52,  2776.30000,  1093.60000
    522.99,  2782.40000,  1111.10000
    523.46,  2790.50000,  1115.70000
    523.93,  2813.00000,  1124.10000
    524.40,  2814.50000,  1099.90000
    524.87,  2800.20000,  1096.90000
    525.34,  2786.50000,  1093.90000
    525.82,  2781.60000,  1103.90000
    526.29,  2787.40000,  1102.80000
    526.76,  2806.40000,  1101.50000
    527.23,  2796.80000,  1089.40000
    527.70,  2783.80000,  1104.00000
    528.17,  2774.70000,  1113.60000
    528.64,  2770.20000,  1123.50000
    529.12,  2772.40000,  1123.50000
    529.59,  2785.30000,  1108.90000
    530.06,  2814.10000,  1107.30000
    530.53,  2802.30000,  1088.70000
    531.00,  2760.00000,  1092.80000
    531.47,  2740.20000,  1113.90000
    531.94,  2731.60000,  1120.40000
    532.41,  2751.40000,  1121.50000
    532.89,  2809.30000,  1130.70000
    533.36,  2817.20000,  1103.30000
    533.83,  2795.40000,  1106.70000
    534.30,  2796.70000,  1122.50000
    534.77,  2801.90000,  1126.60000
    535.24,  2799.00000,  1130.90000
    535.71,  2812.10000,  1136.60000
    536.18,  2813.40000,  1130.40000
    536.65,  2787.20000,  1123.20000
    537.13,  2765.00000,  1131.40000
    537.60,  2760.20000,  1137.20000
    538.07,  2748.10000,  1144.70000
    538.54,  2759.80000,  1154.50000
    539.01,  2796.10000,  1162.10000
    539.48,  2808.20000,  1169.70000
    539.95,  2815.50000,  1177.80000
    540.42,  2804.10000,  1175.00000
    540.89,  2778.40000,  1180.80000
    541.36,  2772.50000,  1180.40000
    541.83,  2779.20000,  1173.20000
    542.30,  2786.50000,  1181.40000
    542.77,  2812.20000,  1179.40000
    543.25,  2814.70000,  1177.80000
    543.72,  2809.90000,  1180.40000
    544.19,  2794.70000,  1175.70000
    544.66,  2777.80000,  1184.00000
    545.13,  2761.50000,  1195.70000
    545.60,  2777.30000,  1214.90000
    546.07,  2787.60000,  1217.50000
    546.54,  2797.40000,  1213.70000
    547.01,  2800.80000,  1206.90000
    547.48,  2800.40000,  1200.80000
    547.95,  2788.10000,  1202.00000
    548.42,  2804.80000,  1220.70000
    548.89,  2797.40000,  1221.20000
    549.36,  2781.70000,  1230.90000
    549.83,  2815.00000,  1243.20000
    550.30,  2831.40000,  1227.90000
    550.77,  2838.30000,  1224.80000
    551.24,  2845.70000,  1232.50000
    551.71,  2821.40000,  1228.90000
    552.18,  2774.90000,  1223.70000
    552.65,  2780.90000,  1246.10000
    553.12,  2783.70000,  1253.20000
    553.59,  2787.30000,  1263.50000
    554.06,  2796.10000,  1268.90000
    554.53,  2796.10000,  1262.40000
    555.00,  2796.80000,  1242.00000
    555.47,  2794.10000,  1240.30000
    555.94,  2786.20000,  1248.90000
    556.41,  2762.90000,  1264.00000
    556.88,  2748.80000,  1275.00000
    557.35,  2740.00000,  1280.40000
    557.82,  2756.90000,  1284.00000
    558.29,  2797.50000,  1282.00000
    558.76,  2819.90000,  1274.90000
    559.23,  2818.40000,  1276.30000
    559.70,  2809.30000,  1271.60000
    560.17,  2800.10000,  1275.00000
    560.64,  2790.10000,  1283.30000
    561.11,  2809.00000,  1288.70000
    561.58,  2801.30000,  1276.40000
    562.05,  2803.00000,  1277.60000
    562.52,  2801.40000,  1273.00000
    562.99,  2806.10000,  1283.80000
    563.46,  2795.10000,  1291.70000
    563.93,  2797.60000,  1298.70000
    564.40,  2799.10000,  1291.90000
    564.87,  2824.40000,  1289.30000
    565.34,  2826.50000,  1272.00000
    565.81,  2821.80000,  1266.20000
    566.28,  2797.60000,  1266.90000
    566.74,  2776.90000,  1273.10000
    567.21,  2781.10000,  1279.10000
    567.68,  2778.20000,  1282.70000
    568.15,  2775.50000,  1286.80000
    568.62,  2773.10000,  1295.20000
    569.09,  2767.70000,  1308.30000
    569.56,  2768.50000,  1305.30000
    570.03,  2804.90000,  1310.70000
    570.50,  2805.80000,  1295.80000
    570.97,  2801.20000,  1291.80000
    571.44,  2805.60000,  1288.90000
    571.91,  2799.30000,  1290.90000
    572.38,  2785.60000,  1276.80000
    572.84,  2789.90000,  1282.70000
    573.31,  2782.80000,  1278.70000
    573.78,  2776.30000,  1283.20000
    574.25,  2791.10000,  1296.60000
    574.72,  2791.50000,  1297.80000
    575.19,  2790.60000,  1286.10000
    575.66,  2783.80000,  1270.90000
    576.13,  2790.30000,  1262.10000
    576.60,  2812.10000,  1266.10000
    577.07,  2832.70000,  1275.80000
    577.53,  2828.80000,  1282.80000
    578.00,  2815.10000,  1293.10000
    578.47,  2789.50000,  1293.50000
    578.94,  2760.80000,  1288.10000
    579.41,  2768.80000,  1289.00000
    579.88,  2780.40000,  1276.10000
    580.35,  2780.90000,  1279.50000
    580.82,  2801.20000,  1280.30000
    581.28,  2809.90000,  1278.10000
    581.75,  2804.00000,  1272.80000
    582.22,  2809.20000,  1272.30000
    582.69,  2809.70000,  1271.00000
    583.16,  2795.70000,  1277.10000
    583.63,  2818.00000,  1278.80000
    584.10,  2831.40000,  1276.60000
    584.56,  2820.40000,  1277.20000
    585.03,  2804.70000,  1281.60000
    585.50,  2779.10000,  1282.60000
    585.97,  2767.20000,  1287.00000
    586.44,  2785.20000,  1283.40000
    586.91,  2789.40000,  1277.90000
    587.37,  2775.50000,  1280.90000
    587.84,  2766.00000,  1267.10000
    588.31,  2744.20000,  1260.00000
    588.78,  2763.40000,  1267.00000
    589.25,  2771.40000,  1258.70000
    589.72,  2788.80000,  1271.40000
    590.18,  2815.80000,  1281.30000
    590.65,  2813.50000,  1278.20000
    591.12,  2817.80000,  1273.90000
    591.59,  2811.20000,  1264.00000
    592.06,  2776.50000,  1246.70000
    592.52,  2778.90000,  1252.30000
    592.99,  2776.10000,  1246.60000
    593.46,  2734.40000,  1254.30000
    593.93,  2750.90000,  1263.00000
    594.40,  2769.20000,  1274.50000
    594.86,  2784.60000,  1272.00000
    595.33,  2809.60000,  1266.20000
    595.80,  2819.20000,  1248.40000
    596.27,  2801.20000,  1244.60000
    596.74,  2792.60000,  1246.50000
    597.20,  2793.00000,  1261.10000
    597.67,  2780.50000,  1261.80000
    598.14,  2773.90000,  1262.40000
    598.61,  2778.10000,  1257.80000
    599.07,  2771.30000,  1259.30000
    599.54,  2751.70000,  1265.30000
    600.01,  2792.30000,  1278.80000
    600.48,  2827.60000,  1265.00000
    600.95,  2841.30000,  1256.10000
    601.41,  2834.20000,  1244.00000
    601.88,  2781.90000,  1237.20000
    602.35,  2724.70000,  1247.20000
    602.82,  2732.80000,  1264.20000
    603.28,  2734.30000,  1269.80000
    603.75,  2758.10000,  1271.00000
    604.22,  2773.90000,  1259.80000
    604.69,  2779.30000,  1252.70000
    605.15,  2777.70000,  1243.60000
    605.62,  2780.70000,  1241.50000
    606.09,  2760.80000,  1244.80000
    606.56,  2762.80000,  1237.30000
    607.02,  2753.30000,  1241.90000
    607.49,  2772.40000,  1248.70000
    607.96,  2772.00000,  1247.40000
    608.42,  2815.40000,  1257.60000
    608.89,  2832.10000,  1248.10000
    609.36,  2829.20000,  1230.00000
    609.83,  2800.70000,  1229.70000
    610.29,  2780.80000,  1218.50000
    610.76,  2762.50000,  1220.00000
    611.23,  2782.50000,  1220.90000
    611.69,  2783.70000,  1221.80000
    612.16,  2784.90000,  1215.50000
    612.63,  2773.70000,  1202.20000
    613.10,  2758.20000,  1189.50000
    613.56,  2762.70000,  1192.30000
    614.03,  2771.40000,  1184.20000
    614.50,  2781.80000,  1191.30000
    614.96,  2792.40000,  1190.30000
    615.43,  2809.00000,  1187.00000
    615.90,  2808.30000,  1188.50000
    616.36,  2793.50000,  1187.30000
    616.83,  2778.00000,  1190.30000
    617.30,  2754.00000,  1185.40000
    617.76,  2735.10000,  1178.70000
    618.23,  2729.20000,  1172.80000
    618.70,  2739.60000,  1178.10000
    619.16,  2747.10000,  1164.10000
    619.63,  2745.50000,  1171.30000
    620.10,  2747.00000,  1169.30000
    620.56,  2763.80000,  1176.50000
    621.03,  2771.50000,  1174.40000
    621.50,  2782.00000,  1178.80000
    621.96,  2787.20000,  1164.10000
    622.43,  2785.60000,  1164.20000
    622.90,  2796.80000,  1161.40000
    623.36,  2796.80000,  1167.30000
    623.83,  2795.00000,  1159.90000
    624.30,  2791.60000,  1160.30000
    624.76,  2795.60000,  1148.80000
    625.23,  2805.30000,  1143.80000
    625.70,  2807.90000,  1140.60000
    626.16,  2781.80000,  1130.00000
    626.63,  2770.80000,  1127.00000
    627.09,  2782.50000,  1123.30000
    627.56,  2789.90000,  1105.40000
    628.03,  2795.70000,  1120.20000
    628.49,  2777.20000,  1127.20000
    628.96,  2759.30000,  1147.00000
    629.43,  2748.00000,  1154.00000
    629.89,  2763.00000,  1141.50000
    630.36,  2760.20000,  1120.40000
    630.82,  2759.50000,  1120.40000
    631.29,  2743.70000,  1116.50000
    631.76,  2727.40000,  1128.20000
    632.22,  2731.50000,  1126.20000
    632.69,  2754.40000,  1120.80000
    633.15,  2786.40000,  1118.00000
    633.62,  2814.70000,  1097.60000
    634.09,  2823.60000,  1084.50000
    634.55,  2800.40000,  1077.40000
    635.02,  2783.10000,  1080.00000
    635.48,  2765.60000,  1091.10000
    635.95,  2768.20000,  1100.40000
    636.42,  2762.40000,  1095.20000
    636.88,  2758.70000,  1094.10000
    637.35,  2771.90000,  1090.20000
    637.81,  2785.50000,  1076.10000
    638.28,  2800.30000,  1068.00000
    638.74,  2805.50000,  1064.00000
    639.21,  2785.30000,  1061.70000
    639.68,  2750.80000,  1067.80000
    640.14,  2755.30000,  1079.40000
    640.61,  2741.30000,  1072.10000
    641.07,  2750.00000,  1082.50000
    641.54,  2762.50000,  1088.70000
    642.00,  2778.50000,  1082.30000
    642.47,  2779.80000,  1077.90000
    642.93,  2783.00000,  1077.60000
    643.40,  2770.90000,  1066.90000
    643.87,  2771.90000,  1067.70000
    644.33,  2777.90000,  1068.30000
    644.80,  2766.70000,  1072.50000
    645.26,  2759.00000,  1075.20000
    645.73,  2751.50000,  1076.60000
    646.19,  2754.10000,  1077.40000
    646.66,  2756.00000,  1056.00000
    647.12,  2760.40000,  1058.80000
    647.59,  2765.60000,  1057.50000
    648.05,  2762.00000,  1052.70000
    648.52,  2754.90000,  1056.10000
    648.98,  2743.10000,  1062.60000
    649.45,  2727.30000,  1053.70000
    649.91,  2723.80000,  1065.40000
    650.38,  2762.50000,  1070.40000
    650.84,  2770.20000,  1056.60000
    651.31,  2776.00000,  1045.90000
    651.77,  2754.80000,  1040.50000
    652.24,  2734.10000,  1033.90000
    652.70,  2723.30000,  1040.10000
    653.17,  2743.40000,  1062.30000
    653.63,  2741.70000,  1062.40000
    654.10,  2755.50000,  1063.60000
    654.56,  2752.60000,  1060.20000
    655.03,  2758.20000,  1049.00000
    655.49,  2762.00000,  1035.10000
    655.96,  2757.90000,  1025.60000
    656.42,  2748.60000,  1014.20000
    656.89,  2788.60000,  1031.00000
    657.35,  2828.90000,  1035.10000
    657.82,  2852.90000,  1049.00000
    658.28,  2863.20000,  1051.70000
    658.75,  2825.50000,  1047.30000
    659.21,  2796.50000,  1035.60000
    659.68,  2791.50000,  1032.50000
    660.14,  2768.70000,  1008.90000
    660.61,  2782.70000,  1025.10000
    661.07,  2800.20000,  1023.00000
    661.53,  2813.30000,  1031.50000
    662.00,  2818.60000,  1019.20000
    662.46,  2810.00000,  1004.60000
    662.93,  2782.90000,   992.30000
    663.39,  2793.00000,  1010.10000
    663.86,  2794.10000,  1009.80000
    664.32,  2809.30000,  1020.30000
    664.79,  2806.50000,  1006.40000
    665.25,  2788.30000,   994.10000
    665.71,  2758.10000,   984.70000
    666.18,  2769.00000,   997.10000
    666.64,  2775.40000,   990.70000
    667.11,  2793.00000,   994.90000
    667.57,  2804.60000,  1004.50000
    668.04,  2792.70000,  1005.90000
    668.50,  2770.00000,  1001.00000
    668.96,  2781.10000,  1012.40000
    669.43,  2770.80000,   984.10000
    669.89,  2754.70000,   976.00000
    670.36,  2744.10000,   987.80000
    670.82,  2745.80000,   981.50000
    671.28,  2751.90000,   983.30000
    671.75,  2773.90000,   993.50000
    672.21,  2784.50000,   976.90000
    672.68,  2790.70000,   988.70000
    673.14,  2815.30000,   985.30000
    673.60,  2802.70000,   969.80000
    674.07,  2775.70000,   966.90000
    674.53,  2760.70000,   964.20000
    675.00,  2747.50000,   963.50000
    675.46,  2740.10000,   972.50000
    675.92,  2780.80000,   967.00000
    676.39,  2790.50000,   956.10000
    676.85,  2797.10000,   954.10000
    677.31,  2802.90000,   948.90000
    677.78,  2789.80000,   949.20000
    678.24,  2765.20000,   949.80000
    678.70,  2746.90000,   948.30000
    679.17,  2724.70000,   942.10000
    679.63,  2721.20000,   939.60000
    680.10,  2742.00000,   941.50000
    680.56,  2744.20000,   941.10000
    681.02,  2769.30000,   956.30000
    681.49,  2776.40000,   955.50000
    681.95,  2767.70000,   951.70000
    682.41,  2764.40000,   939.90000
    682.88,  2763.20000,   936.40000
    683.34,  2743.90000,   926.70000
    683.80,  2751.40000,   932.20000
    684.27,  2760.80000,   933.10000
    684.73,  2771.00000,   940.30000
    685.19,  2796.90000,   947.10000
    685.66,  2798.50000,   948.90000
    686.12,  2815.70000,   943.10000
    686.58,  2812.70000,   919.40000
    687.05,  2801.90000,   905.30000
    687.51,  2787.30000,   902.60000
    687.97,  2793.30000,   899.60000
    688.44,  2784.30000,   906.90000
    688.90,  2792.10000,   909.70000
    689.36,  2792.10000,   908.60000
    689.83,  2802.90000,   913.00000
    690.29,  2817.10000,   912.80000
    690.75,  2826.90000,   911.30000
    691.21,  2811.00000,   903.50000
    691.68,  2782.60000,   889.20000
    692.14,  2776.90000,   894.20000
    692.60,  2771.30000,   887.40000
    693.07,  2782.20000,   900.80000
    693.53,  2794.50000,   919.40000
    693.99,  2796.20000,   921.00000
    694.45,  2806.50000,   919.60000
    694.92,  2817.10000,   911.40000
    695.38,  2808.40000,   893.60000
    695.84,  2792.10000,   890.10000
    696.31,  2797.90000,   897.90000
    696.77,  2791.60000,   894.20000
    697.23,  2792.90000,   900.00000
    697.69,  2780.80000,   899.60000
    698.16,  2768.20000,   895.10000
    698.62,  2744.10000,   901.00000
    699.08,  2740.20000,   907.80000
    699.54,  2729.90000,   902.30000
    700.01,  2722.10000,   899.20000
    700.47,  2724.50000,   890.80000
    700.93,  2739.60000,   877.60000
    701.39,  2756.50000,   875.50000
    701.86,  2764.30000,   863.40000
    702.32,  2765.10000,   869.30000
    702.78,  2762.60000,   870.50000
    703.24,  2756.80000,   879.60000
    703.71,  2763.20000,   881.50000
    704.17,  2765.60000,   875.50000
    704.63,  2756.50000,   868.80000
    705.09,  2774.20000,   881.20000
    705.56,  2790.00000,   867.10000
    706.02,  2774.00000,   862.20000
    706.48,  2766.10000,   864.30000
    706.94,  2743.00000,   865.00000
    707.40,  2735.20000,   878.80000
    707.87,  2746.80000,   875.40000
    708.33,  2751.20000,   852.30000
    708.79,  2726.20000,   849.20000
    709.25,  2725.40000,   857.10000
    709.72,  2733.80000,   860.60000
    710.18,  2738.00000,   865.40000
    710.64,  2732.50000,   852.70000
    711.10,  2747.70000,   850.70000
    711.56,  2760.00000,   861.70000
    712.03,  2787.70000,   859.20000
    712.49,  2810.60000,   856.20000
    712.95,  2805.50000,   841.30000
    713.41,  2798.50000,   844.20000
    713.87,  2796.30000,   848.40000
    714.33,  2781.50000,   855.10000
    714.80,  2744.70000,   853.80000
    715.26,  2727.30000,   855.70000
    715.72,  2719.90000,   852.70000
    716.18,  2732.20000,   853.90000
    716.64,  2735.90000,   841.90000
    717.11,  2738.80000,   839.70000
    717.57,  2717.00000,   841.70000
    718.03,  2722.30000,   846.50000
    718.49,  2763.00000,   860.10000
    718.95,  2783.90000,   848.10000
    719.41,  2764.40000,   834.40000
    719.87,  2757.10000,   838.60000
    720.34,  2746.70000,   840.20000
    720.80,  2735.20000,   841.00000
    721.26,  2763.70000,   843.50000
    721.72,  2757.10000,   835.90000
    722.18,  2734.40000,   834.30000
    722.64,  2740.00000,   841.20000
    723.10,  2750.90000,   839.00000
    723.57,  2755.10000,   841.20000
    724.03,  2760.60000,   829.40000
    724.49,  2730.30000,   827.30000
    724.95,  2770.60000,   848.50000
    725.41,  2821.40000,   844.60000
    725.87,  2852.90000,   823.90000
    726.33,  2861.80000,   817.80000
    726.80,  2828.90000,   796.40000
    727.26,  2759.60000,   779.80000
    727.72,  2745.30000,   800.70000
    728.18,  2730.80000,   813.00000
    728.64,  2732.10000,   821.80000
    729.10,  2748.70000,   831.10000
    729.56,  2771.30000,   833.60000
    730.02,  2780.20000,   815.10000
    730.48,  2779.00000,   807.30000
    730.94,  2767.50000,   814.40000
    731.41,  2734.90000,   827.60000
    731.87,  2709.80000,   833.40000
    732.33,  2726.00000,   846.00000
    732.79,  2732.40000,   834.00000
    733.25,  2759.90000,   820.70000
    733.71,  2777.50000,   819.20000
    734.17,  2760.90000,   821.90000
    734.63,  2741.40000,   819.00000
    735.09,  2732.70000,   826.80000
    735.55,  2715.90000,   821.80000
    736.01,  2723.50000,   817.50000
    736.47,  2724.60000,   816.10000
    736.94,  2741.80000,   816.10000
    737.40,  2750.60000,   811.60000
    737.86,  2758.40000,   816.90000
    738.32,  2768.50000,   817.40000
    738.78,  2761.70000,   815.10000
    739.24,  2756.40000,   804.80000
    739.70,  2783.00000,   803.60000
    740.16,  2805.10000,   794.10000
    740.62,  2822.80000,   796.70000
    741.08,  2813.50000,   804.00000
    741.54,  2785.80000,   805.00000
    742.00,  2748.00000,   801.50000
    742.46,  2715.40000,   812.90000
    742.92,  2710.90000,   820.20000
    743.38,  2710.70000,   825.50000
    743.84,  2725.80000,   830.50000
    744.30,  2751.30000,   811.60000
    744.76,  2749.50000,   799.00000
    745.22,  2733.20000,   796.20000
    745.68,  2717.00000,   807.50000
    746.14,  2716.90000,   817.80000
    746.60,  2733.10000,   814.80000
    747.06,  2732.30000,   801.40000
    747.52,  2744.00000,   802.60000
    747.98,  2756.50000,   786.20000
    748.44,  2752.60000,   801.10000
    748.90,  2753.90000,   821.30000
    749.36,  2759.10000,   831.50000
    749.82,  2763.60000,   828.90000
    750.28,  2786.10000,   818.20000
    750.74,  2793.00000,   789.80000
    751.20,  2785.70000,   785.00000
    751.66,  2757.50000,   786.60000
    752.12,  2749.20000,   803.40000
    752.58,  2755.40000,   817.40000
    753.04,  2786.20000,   814.30000
    753.50,  2783.70000,   802.80000
    753.96,  2762.50000,   797.90000
    754.42,  2735.30000,   789.60000
    754.88,  2729.10000,   799.60000
    755.34,  2744.80000,   812.70000
    755.80,  2764.30000,   809.00000
    756.26,  2771.00000,   805.90000
    756.72,  2769.60000,   807.50000
    757.18,  2762.40000,   799.60000
    757.64,  2733.00000,   808.70000
    758.10,  2709.50000,   807.80000
    758.56,  2707.50000,   809.80000
    759.02,  2712.40000,   808.10000
    759.48,  2734.80000,   811.40000
    759.94,  2748.80000,   807.20000
    760.40,  2746.50000,   813.40000
    760.86,  2746.10000,   806.60000
    761.32,  2772.10000,   810.50000
    761.78,  2752.10000,   808.60000
    762.24,  2752.10000,   814.00000
    762.70,  2739.20000,   806.70000
    763.15,  2741.10000,   808.80000
    763.61,  2749.70000,   805.70000
    764.07,  2752.90000,   817.20000
    764.53,  2750.90000,   821.60000
    764.99,  2772.00000,   823.30000
    765.45,  2769.90000,   806.00000
    765.91,  2756.80000,   807.70000
    766.37,  2734.50000,   804.90000
    766.83,  2726.30000,   811.30000
    767.29,  2727.90000,   809.90000
    767.75,  2741.80000,   822.00000
    768.21,  2755.80000,   814.40000
    768.66,  2762.00000,   817.10000
    769.12,  2750.00000,   810.30000
    769.58,  2738.90000,   801.10000
    770.04,  2706.80000,   807.30000
    770.50,  2683.90000,   827.90000
    770.96,  2703.90000,   840.20000
    771.42,  2728.10000,   832.20000
    771.88,  2745.00000,   821.80000
    772.34,  2745.60000,   805.00000
    772.80,  2726.80000,   800.60000
    773.25,  2720.90000,   801.70000
    773.71,  2709.40000,   802.40000
    774.17,  2721.20000,   803.50000
    774.63,  2734.50000,   801.60000
    775.09,  2729.40000,   798.80000
    775.55,  2702.40000,   797.20000
    776.01,  2699.70000,   805.80000
    776.47,  2678.80000,   808.80000
    776.92,  2702.60000,   825.30000
    777.38,  2714.30000,   827.00000
    777.84,  2717.60000,   816.90000
    778.30,  2710.60000,   805.90000
    778.76,  2724.90000,   806.40000
    779.22,  2728.90000,   801.50000
    779.68,  2732.50000,   811.70000
    780.13,  2717.40000,   814.00000
    780.59,  2699.20000,   817.10000
    781.05,  2704.80000,   818.40000
    781.51,  2719.00000,   820.70000
    781.97,  2727.60000,   818.00000
    782.43,  2735.50000,   829.30000
    782.88,  2737.40000,   820.70000
    783.34,  2739.10000,   821.10000
    783.80,  2757.30000,   814.40000
    784.26,  2756.20000,   797.80000
    784.72,  2739.40000,   800.70000
    785.18,  2723.40000,   809.50000
    785.63,  2729.20000,   822.40000
    786.09,  2756.30000,   830.70000
    786.55,  2775.50000,   829.30000
    787.01,  2761.40000,   818.90000
    787.47,  2734.10000,   815.70000
    787.92,  2712.20000,   805.60000
    788.38,  2700.10000,   809.60000
    788.84,  2713.00000,   812.90000
    789.30,  2723.70000,   811.80000
    789.76,  2726.40000,   813.70000
    790.21,  2720.40000,   813.20000
    790.67,  2713.20000,   821.80000
    791.13,  2692.10000,   820.20000
    791.59,  2685.50000,   820.40000
    792.05,  2697.20000,   811.90000
    792.50,  2725.70000,   801.30000
    792.96,  2715.00000,   787.50000
    793.42,  2713.40000,   801.70000
    793.88,  2696.30000,   793.50000
    794.33,  2692.80000,   802.70000
    794.79,  2699.00000,   804.90000
    795.25,  2715.60000,   810.70000
    795.71,  2721.20000,   805.80000
    796.17,  2731.20000,   800.80000
    796.62,  2713.00000,   788.60000
    797.08,  2701.70000,   806.20000
    797.54,  2686.40000,   811.60000
    798.00,  2690.60000,   817.90000
    798.45,  2701.30000,   818.50000
    798.91,  2718.50000,   812.10000
    799.37,  2720.10000,   806.40000
    799.83,  2703.10000,   814.80000
    800.28,  2690.10000,   812.50000
    800.74,  2709.80000,   813.60000
    801.20,  2699.90000,   807.90000
    801.66,  2706.50000,   819.10000
    802.11,  2716.80000,   811.00000
    802.57,  2697.50000,   805.80000
    803.03,  2673.30000,   808.10000
    803.48,  2715.50000,   827.30000
    803.94,  2745.40000,   812.70000
    804.40,  2773.00000,   813.40000
    804.86,  2777.50000,   790.10000
    805.31,  2741.30000,   783.20000
    805.77,  2683.70000,   784.10000
    806.23,  2684.10000,   806.50000
    806.69,  2690.80000,   803.90000
    807.14,  2709.70000,   809.70000
    807.60,  2726.70000,   801.00000
    808.06,  2731.90000,   797.70000
    808.51,  2712.00000,   780.80000
    808.97,  2705.90000,   791.50000
    809.43,  2697.90000,   797.50000
    809.88,  2688.00000,   803.50000
    810.34,  2698.90000,   813.30000
    810.80,  2718.20000,   806.80000
    811.26,  2711.10000,   791.60000
    811.71,  2727.80000,   799.40000
    812.17,  2724.40000,   794.90000
    812.63,  2700.60000,   792.20000
    813.08,  2696.70000,   799.20000
    813.54,  2711.40000,   796.30000
    814.00,  2711.30000,   797.10000
    814.45,  2722.70000,   811.90000
    814.91,  2715.00000,   804.00000
    815.37,  2699.10000,   800.80000
    815.82,  2689.20000,   800.50000
    816.28,  2695.60000,   796.30000
    816.74,  2677.10000,   784.70000
    817.19,  2681.20000,   791.60000
    817.65,  2707.10000,   779.10000
    818.11,  2717.90000,   769.00000
    818.56,  2704.80000,   775.20000
    819.02,  2702.80000,   779.80000
    819.48,  2668.90000,   771.50000
    819.93,  2676.30000,   787.20000
    820.39,  2707.60000,   787.90000
    820.84,  2731.40000,   779.40000
    821.30,  2725.70000,   785.90000
    821.76,  2735.40000,   790.60000
    822.21,  2719.90000,   783.20000
    822.67,  2685.60000,   784.70000
    823.13,  2704.80000,   794.00000
    823.58,  2737.80000,   780.90000
    824.04,  2734.30000,   779.20000
    824.49,  2745.30000,   782.70000
    824.95,  2753.40000,   768.80000
    825.41,  2726.80000,   764.20000
    825.86,  2740.80000,   775.00000
    826.32,  2730.50000,   758.70000
    826.78,  2700.10000,   763.00000
    827.23,  2677.70000,   776.90000
    827.69,  2679.70000,   784.70000
    828.14,  2703.30000,   784.40000
    828.60,  2726.90000,   782.30000
    829.06,  2723.30000,   766.10000
    829.51,  2727.20000,   759.60000
    829.97,  2722.00000,   758.30000
    830.42,  2703.40000,   758.60000
    830.88,  2701.90000,   757.40000
    831.34,  2717.90000,   768.10000
    831.79,  2731.90000,   757.50000
    832.25,  2733.10000,   747.20000
    832.70,  2740.40000,   741.30000
    833.16,  2731.90000,   733.40000
    833.61,  2724.20000,   739.60000
    834.07,  2720.30000,   753.50000
    834.53,  2715.70000,   760.90000
    834.98,  2691.50000,   760.60000
    835.44,  2694.30000,   759.60000
    835.89,  2707.20000,   751.20000
    836.35,  2726.40000,   754.30000
    836.80,  2716.50000,   750.30000
    837.26,  2699.40000,   756.80000
    837.71,  2679.40000,   769.90000
    838.17,  2675.80000,   764.10000
    838.63,  2679.50000,   758.70000
    839.08,  2688.70000,   764.60000
    839.54,  2695.60000,   749.60000
    839.99,  2706.50000,   751.00000
    840.45,  2722.80000,   754.20000
    840.90,  2736.00000,   746.50000
    841.36,  2729.80000,   741.50000
    841.81,  2711.50000,   744.80000
    842.27,  2695.50000,   745.90000
    842.72,  2688.30000,   753.40000
    843.18,  2676.10000,   743.90000
    843.63,  2669.90000,   746.40000
    844.09,  2661.80000,   739.50000
    844.55,  2664.00000,   736.10000
    845.00,  2677.10000,   744.60000
    845.46,  2695.40000,   732.70000
    845.91,  2711.40000,   731.00000
    846.37,  2729.80000,   736.70000
    846.82,  2732.30000,   737.60000
    847.28,  2694.60000,   726.80000
    847.73,  2706.90000,   743.20000
    848.19,  2718.30000,   726.70000
    848.64,  2735.80000,   731.00000
    849.10,  2746.20000,   728.60000
    849.55,  2733.30000,   737.40000
    850.01,  2686.90000,   732.10000
    850.46,  2702.10000,   741.70000
    850.92,  2712.50000,   732.20000
    851.37,  2717.20000,   729.20000
    851.83,  2717.40000,   729.60000
    852.28,  2698.90000,   738.40000
    852.73,  2667.00000,   746.30000
    853.19,  2663.40000,   750.90000
    853.64,  2666.80000,   755.60000
    854.10,  2683.10000,   743.10000
    854.55,  2692.60000,   740.40000
    855.01,  2680.60000,   729.70000
    855.46,  2664.10000,   732.70000
    855.92,  2660.10000,   733.60000
    856.37,  2657.30000,   733.90000
    856.83,  2677.60000,   737.70000
    857.28,  2683.00000,   732.00000
    857.74,  2689.10000,   714.30000
    858.19,  2702.50000,   721.80000
    858.64,  2695.80000,   723.30000
    859.10,  2672.40000,   727.70000
    859.55,  2705.60000,   757.00000
    860.01,  2735.80000,   742.70000
    860.46,  2745.70000,   722.80000
    860.92,  2740.00000,   725.30000
    861.37,  2733.60000,   723.20000
    861.83,  2704.90000,   719.40000
    862.28,  2715.00000,   732.00000
    862.73,  2715.80000,   719.50000
    863.19,  2697.40000,   722.80000
    863.64,  2680.70000,   726.80000
    864.10,  2695.30000,   734.50000
    864.55,  2690.20000,   728.80000
    865.01,  2709.10000,   734.50000
    865.46,  2703.90000,   725.00000
    865.91,  2690.10000,   733.80000
    866.37,  2683.10000,   730.20000
    866.82,  2674.00000,   732.30000
    867.28,  2662.70000,   731.10000
    867.73,  2686.60000,   747.20000
    868.18,  2695.00000,   744.80000
    868.64,  2711.20000,   749.40000
    869.09,  2728.70000,   749.00000
    869.55,  2717.40000,   742.00000
    870.00,  2702.60000,   741.40000
    870.45,  2675.40000,   746.40000
    870.91,  2656.40000,   738.60000
    871.36,  2675.00000,   731.80000
    871.81,  2704.30000,   737.70000
    872.27,  2715.00000,   726.50000
    872.72,  2709.60000,   733.80000
    873.18,  2690.70000,   728.20000
    873.63,  2680.50000,   729.10000
    874.08,  2692.00000,   731.90000
    874.54,  2689.10000,   730.80000
    874.99,  2674.10000,   724.60000
    875.44,  2653.30000,   731.60000
    875.90,  2656.10000,   730.90000
    876.35,  2679.30000,   748.40000
    876.81,  2713.30000,   752.10000
    877.26,  2708.20000,   732.50000
    877.71,  2680.50000,   732.30000
    878.17,  2688.20000,   742.20000
    878.62,  2705.60000,   745.40000
    879.07,  2728.20000,   746.00000
    879.53,  2732.90000,   739.40000
    879.98,  2721.20000,   721.30000
    880.43,  2697.90000,   727.40000
    880.89,  2700.60000,   733.50000
    881.34,  2704.80000,   743.00000
    881.79,  2701.60000,   735.30000
    882.25,  2675.00000,   748.40000
    882.70,  2658.40000,   754.30000
    883.15,  2662.10000,   765.80000
    883.61,  2656.10000,   755.30000
    884.06,  2667.60000,   762.70000
    884.51,  2666.40000,   747.00000
    884.97,  2671.60000,   765.40000
    885.42,  2677.70000,   759.00000
    885.87,  2698.00000,   754.70000
    886.32,  2683.00000,   738.20000
    886.78,  2685.30000,   744.20000
    887.23,  2677.10000,   736.40000
    887.68,  2684.80000,   741.70000
    888.14,  2672.00000,   738.10000
    888.59,  2657.70000,   742.60000
    889.04,  2624.20000,   749.40000
    889.50,  2630.40000,   765.40000
    889.95,  2659.40000,   760.50000
    890.40,  2688.00000,   756.10000
    890.85,  2684.00000,   751.00000
    891.31,  2679.80000,   762.40000
    891.76,  2666.20000,   757.50000
    892.21,  2673.00000,   760.40000
    892.67,  2680.90000,   755.90000
    893.12,  2688.30000,   758.00000
    893.57,  2692.70000,   751.40000
    894.02,  2704.50000,   759.80000
    894.48,  2706.60000,   752.10000
    894.93,  2708.10000,   757.90000
    895.38,  2688.20000,   760.80000
    895.83,  2678.80000,   764.40000
    896.29,  2671.70000,   762.10000
    896.74,  2684.70000,   767.50000
    897.19,  2696.80000,   771.80000
    897.64,  2709.40000,   771.50000
    898.10,  2695.90000,   757.70000
    898.55,  2686.20000,   754.60000
    899.00,  2655.30000,   748.00000
    899.45,  2638.20000,   758.10000
    899.91,  2619.50000,   769.30000
    900.36,  2640.40000,   778.90000
    900.81,  2658.40000,   775.10000
    901.26,  2685.60000,   776.00000
    901.72,  2682.60000,   773.00000
    902.17,  2684.60000,   778.50000
    902.62,  2654.70000,   781.10000
    903.07,  2655.70000,   789.10000
    903.52,  2660.20000,   796.60000
    903.98,  2673.40000,   797.40000
    904.43,  2670.90000,   785.40000
    904.88,  2675.00000,   781.70000
    905.33,  2667.20000,   770.10000
    905.79,  2671.50000,   769.10000
    906.24,  2684.40000,   774.80000
    906.69,  2689.10000,   772.50000
    907.14,  2668.30000,   764.50000
    907.59,  2645.60000,   772.80000
    908.05,  2630.10000,   772.30000
    908.50,  2635.30000,   782.20000
    908.95,  2646.70000,   787.40000
    909.40,  2649.40000,   783.60000
    909.85,  2651.40000,   788.10000
    910.31,  2638.20000,   786.70000
    910.76,  2619.30000,   791.30000
    911.21,  2616.90000,   802.10000
    911.66,  2613.40000,   803.30000
    912.11,  2636.40000,   801.20000
    912.56,  2665.70000,   798.70000
    913.02,  2672.40000,   796.50000
    913.47,  2661.60000,   810.40000
    913.92,  2645.50000,   819.10000
    914.37,  2636.20000,   830.30000
    914.82,  2647.50000,   843.10000
    915.27,  2671.50000,   847.10000
    915.73,  2673.00000,   847.70000
    916.18,  2665.40000,   843.20000
    916.63,  2634.30000,   840.50000
    917.08,  2651.30000,   863.00000
    917.53,  2560.60000,   849.60000
    917.98,  2815.80000,   952.00000
    918.44,  3031.10000,   930.50000
    918.89,  3114.80000,   910.80000
    919.34,  3054.90000,   893.80000
    919.79,  2909.20000,   886.20000
    920.24,  2615.90000,   868.50000
    920.69,  2662.00000,   970.10000
    921.14,  2681.20000,   953.30000
    921.59,  2670.50000,   974.30000
    922.05,  2663.30000,  1000.80000
    922.50,  2673.00000,  1036.50000
    922.95,  2688.60000,  1076.20000
    923.40,  2709.10000,  1104.60000
    923.85,  2719.50000,  1143.40000
    924.30,  2711.70000,  1185.00000
    924.75,  2687.90000,  1256.00000
    925.20,  2660.10000,  1357.30000
    925.66,  2647.90000,  1481.20000
    926.11,  2655.70000,  1612.20000
    926.56,  2672.60000,  1775.60000
    927.01,  2679.50000,  1941.70000
    927.46,  2656.10000,  2141.10000
    927.91,  2623.20000,  2367.10000
    928.36,  2619.20000,  2623.70000
    928.81,  2638.50000,  2879.20000
    929.26,  2665.70000,  3174.90000
    929.71,  2691.50000,  3489.00000
    930.16,  2676.10000,  3810.40000
    930.62,  2657.50000,  4134.70000
    931.07,  2653.70000,  4445.00000
    931.52,  2663.30000,  4726.60000
    931.97,  2671.50000,  5012.10000
    932.42,  2680.20000,  5269.20000
    932.87,  2667.60000,  5468.10000
    933.32,  2678.20000,  5651.60000
    933.77,  2680.60000,  5814.50000
    934.22,  2690.30000,  5962.90000
    934.67,  2689.00000,  6092.40000
    935.12,  2662.70000,  6187.50000
    935.57,  2626.00000,  6248.50000
    936.02,  2639.40000,  6319.50000
    936.47,  2633.40000,  6409.90000
    936.93,  2640.50000,  6480.10000
    937.38,  2656.80000,  6535.50000
    937.83,  2655.30000,  6549.50000
    938.28,  2643.90000,  6545.20000
    938.73,  2660.10000,  6569.70000
    939.18,  2658.70000,  6658.70000
    939.63,  2665.10000,  6829.80000
    940.08,  2678.60000,  7074.90000
    940.53,  2682.70000,  7316.20000
    940.98,  2657.50000,  7520.00000
    941.43,  2649.50000,  7678.20000
    941.88,  2653.30000,  7799.50000
    942.33,  2653.40000,  7956.10000
    942.78,  2667.30000,  8074.10000
    943.23,  2677.50000,  8158.10000
    943.68,  2685.50000,  8207.30000
    944.13,  2697.00000,  8230.80000
    944.58,  2694.10000,  8252.90000
    945.03,  2667.00000,  8299.70000
    945.48,  2660.00000,  8290.40000
    945.93,  2658.50000,  8262.40000
    946.38,  2682.70000,  8266.20000
    946.83,  2689.50000,  8333.10000
    947.28,  2682.10000,  8409.50000
    947.73,  2665.70000,  8450.70000
    948.18,  2661.80000,  8452.00000
    948.63,  2664.00000,  8428.20000
    949.08,  2657.50000,  8419.80000
    949.53,  2640.90000,  8441.30000
    949.98,  2633.60000,  8487.00000
    950.43,  2637.40000,  8493.90000
    950.88,  2652.90000,  8465.60000
    951.33,  2676.20000,  8448.10000
    951.78,  2682.80000,  8388.90000
    952.23,  2673.50000,  8251.50000
    952.68,  2664.70000,  8153.10000
    953.13,  2669.40000,  8007.90000
    953.58,  2663.70000,  7842.10000
    954.03,  2647.30000,  7767.70000
    954.48,  2639.00000,  7724.50000
    954.93,  2633.70000,  7676.80000
    955.38,  2637.70000,  7633.30000
    955.83,  2643.40000,  7579.70000
    956.28,  2655.30000,  7513.90000
    956.73,  2653.90000,  7456.40000
    957.18,  2649.90000,  7342.90000
    957.62,  2662.80000,  7208.20000
    958.07,  2659.60000,  7005.50000
    958.52,  2648.10000,  6823.20000
    958.97,  2645.70000,  6641.50000
    959.42,  2632.00000,  6480.30000
    959.87,  2635.90000,  6344.30000
    960.32,  2656.20000,  6231.50000
    960.77,  2694.40000,  6092.60000
    961.22,  2719.20000,  5915.00000
    961.67,  2704.80000,  5721.10000
    962.12,  2675.50000,  5524.60000
    962.57,  2670.00000,  5364.90000
    963.02,  2659.10000,  5219.60000
    963.47,  2675.20000,  5088.80000
    963.92,  2684.30000,  4956.40000
    964.36,  2677.90000,  4831.50000
    964.81,  2672.70000,  4719.70000
    965.26,  2668.40000,  4618.00000
    965.71,  2663.60000,  4530.50000
    966.16,  2649.70000,  4478.10000
    966.61,  2642.40000,  4433.80000
    967.06,  2659.20000,  4367.10000
    967.51,  2673.00000,  4303.60000
    967.96,  2675.20000,  4214.10000
    968.41,  2676.70000,  4088.00000
    968.85,  2665.30000,  3948.40000
    969.30,  2668.10000,  3798.80000
    969.75,  2670.50000,  3647.30000
    970.20,  2672.50000,  3506.60000
    970.65,  2665.70000,  3360.70000
    971.10,  2666.00000,  3202.80000
    971.55,  2656.00000,  3080.00000
    972.00,  2647.80000,  3042.10000
    972.44,  2660.50000,  3037.60000
    972.89,  2679.80000,  2973.20000
    973.34,  2684.40000,  2846.90000
    973.79,  2694.20000,  2679.10000
    974.24,  2671.00000,  2519.60000
    974.69,  2636.00000,  2434.00000
    975.14,  2630.80000,  2385.70000
    975.59,  2620.60000,  2335.00000
    976.03,  2607.30000,  2322.60000
    976.48,  2612.10000,  2348.40000
    976.93,  2614.30000,  2376.50000
    977.38,  2610.20000,  2399.80000
    977.83,  2626.70000,  2401.50000
    978.28,  2647.90000,  2370.10000
    978.72,  2666.50000,  2337.10000
    979.17,  2676.60000,  2317.30000
    979.62,  2682.80000,  2300.20000
    980.07,  2663.30000,  2307.70000
    980.52,  2639.60000,  2324.70000
    980.97,  2604.00000,  2326.70000
    981.41,  2583.70000,  2346.10000
    981.86,  2589.40000,  2371.60000
    982.31,  2616.70000,  2379.00000
    982.76,  2648.60000,  2387.10000
    983.21,  2661.70000,  2361.80000
    983.66,  2642.40000,  2302.50000
    984.10,  2621.90000,  2244.00000
    984.55,  2607.60000,  2174.20000
    985.00,  2590.90000,  2104.60000
    985.45,  2598.50000,  2034.70000
    985.90,  2612.50000,  1954.00000
    986.34,  2609.90000,  1875.30000
    986.79,  2606.40000,  1816.60000
    987.24,  2588.30000,  1768.30000
    987.69,  2577.60000,  1724.00000
    988.14,  2591.40000,  1676.40000
    988.58,  2610.30000,  1633.60000
    989.03,  2629.90000,  1585.80000
    989.48,  2637.30000,  1543.80000
    989.93,  2622.50000,  1500.00000
    990.38,  2620.10000,  1451.10000
    990.82,  2626.90000,  1405.30000
    991.27,  2648.00000,  1363.50000
    991.72,  2638.50000,  1321.80000
    992.17,  2638.50000,  1298.70000
    992.61,  2620.30000,  1264.50000
    993.06,  2635.80000,  1249.90000
    993.51,  2640.80000,  1223.20000
    993.96,  2638.80000,  1203.00000
    994.41,  2611.20000,  1190.20000
    994.85,  2622.00000,  1182.40000
    995.30,  2626.70000,  1159.10000
    995.75,  2666.00000,  1134.50000
    996.20,  2662.50000,  1094.20000
    996.64,  2627.20000,  1080.70000
    997.09,  2608.40000,  1064.40000
    997.54,  2595.50000,  1056.00000
    997.99,  2589.40000,  1060.90000
    998.43,  2599.70000,  1041.30000
    998.88,  2603.40000,  1032.80000
    999.33,  2622.00000,  1029.70000
    999.77,  2644.50000,  1011.50000
   1000.22,  2655.00000,   999.90000
   1000.67,  2655.00000,   997.40000
   1001.12,  2636.40000,   970.80000
   1001.56,  2617.20000,   968.20000
   1002.01,  2625.20000,   973.40000
   1002.46,  2608.90000,   973.50000
   1002.91,  2616.20000,   984.90000
   1003.35,  2603.00000,   991.90000
   1003.80,  2603.70000,   979.50000
   1004.25,  2605.70000,   971.10000
   1004.69,  2597.90000,   961.20000
   1005.14,  2594.20000,   963.60000
   1005.59,  2625.90000,   968.60000
   1006.04,  2641.90000,   965.30000
   1006.48,  2669.00000,   972.60000
   1006.93,  2668.10000,   968.40000
   1007.38,  2632.40000,   961.70000
   1007.82,  2608.00000,   958.20000
   1008.27,  2592.50000,   961.80000
   1008.72,  2588.90000,   959.00000
   1009.16,  2591.40000,   971.40000
   1009.61,  2595.90000,   964.90000
   1010.06,  2619.50000,   965.70000
   1010.50,  2649.40000,   958.60000
   1010.95,  2663.40000,   960.70000
   1011.40,  2648.30000,   961.20000
   1011.85,  2635.20000,   962.40000
   1012.29,  2610.70000,   947.10000
   1012.74,  2606.30000,   939.50000
   1013.19,  2635.80000,   945.70000
   1013.63,  2665.70000,   936.90000
   1014.08,  2662.70000,   937.20000
   1014.53,  2652.00000,   945.00000
   1014.97,  2625.50000,   947.50000
   1015.42,  2595.50000,   954.60000
   1015.86,  2605.70000,   962.90000
   1016.31,  2630.10000,   956.20000
   1016.76,  2626.80000,   942.40000
   1017.20,  2602.00000,   941.90000
   1017.65,  2590.90000,   946.40000
   1018.10,  2571.30000,   960.10000
   1018.54,  2592.90000,   965.80000
   1018.99,  2609.50000,   959.60000
   1019.44,  2615.00000,   949.90000
   1019.88,  2608.20000,   948.00000
   1020.33,  2612.30000,   952.60000
   1020.78,  2615.30000,   958.60000
   1021.22,  2621.50000,   961.10000
   1021.67,  2611.40000,   952.90000
   1022.11,  2616.80000,   944.50000
   1022.56,  2607.90000,   939.60000
   1023.01,  2591.80000,   937.60000
   1023.45,  2588.60000,   937.70000
   1023.90,  2571.80000,   950.60000
   1024.34,  2567.80000,   964.80000
   1024.79,  2590.40000,   972.00000
   1025.24,  2593.10000,   963.00000
   1025.68,  2596.50000,   955.80000
   1026.13,  2604.10000,   946.10000
   1026.58,  2613.30000,   952.40000
   1027.02,  2621.10000,   948.80000
   1027.47,  2625.00000,   953.30000
   1027.91,  2605.00000,   947.60000
   1028.36,  2587.80000,   964.10000
   1028.80,  2570.50000,   964.90000
   1029.25,  2564.70000,   977.00000
   1029.70,  2566.30000,   965.50000
   1030.14,  2571.90000,   958.20000
   1030.59,  2575.80000,   955.80000
   1031.03,  2590.60000,   954.70000
   1031.48,  2610.40000,   965.40000
   1031.93,  2633.20000,   973.70000
   1032.37,  2639.50000,   970.40000
   1032.82,  2647.70000,   970.80000
   1033.26,  2629.10000,   968.50000
   1033.71,  2621.50000,   950.50000
   1034.15,  2608.10000,   960.00000
   1034.60,  2614.90000,   965.40000
   1035.05,  2604.60000,   966.80000
   1035.49,  2599.10000,   986.40000
   1035.94,  2574.10000,   988.00000
   1036.38,  2559.80000,   978.40000
   1036.83,  2548.30000,   983.60000
   1037.27,  2548.70000,   988.60000
   1037.72,  2631.50000,  1009.50000
   1038.16,  2708.20000,  1011.70000
   1038.61,  2729.10000,  1001.00000
   1039.05,  2717.90000,   992.40000
   1039.50,  2669.00000,   984.60000
   1039.95,  2598.50000,   987.00000
   1040.39,  2595.70000,  1004.60000
   1040.84,  2595.70000,  1007.10000
   1041.28,  2584.40000,  1016.70000
   1041.73,  2589.60000,  1016.50000
   1042.17,  2599.90000,  1007.10000
   1042.62,  2610.50000,  1014.80000
   1043.06,  2604.00000,  1000.20000
   1043.51,  2601.70000,  1007.50000
   1043.95,  2591.10000,  1011.60000
   1044.40,  2581.00000,  1004.60000
   1044.84,  2574.00000,  1005.20000
   1045.29,  2582.90000,  1014.20000
   1045.73,  2577.80000,  1008.40000
   1046.18,  2572.60000,  1011.00000
   1046.62,  2564.50000,  1003.70000
   1047.07,  2557.50000,   993.10000
   1047.51,  2575.00000,  1011.80000
   1047.96,  2621.30000,  1019.00000
   1048.40,  2638.80000,  1025.90000
   1048.85,  2622.70000,  1032.30000
   1049.29,  2583.20000,  1023.00000
   1049.74,  2547.10000,  1025.70000
   1050.18,  2546.40000,  1031.00000
   1050.63,  2566.00000,  1026.40000
   1051.07,  2585.60000,  1024.50000
   1051.52,  2578.20000,  1025.20000
   1051.96,  2563.80000,  1025.20000
   1052.41,  2553.90000,  1041.50000
   1052.85,  2555.00000,  1033.00000
   1053.30,  2556.60000,  1041.80000
   1053.74,  2559.60000,  1048.60000
   1054.18,  2549.20000,  1041.10000
   1054.63,  2534.90000,  1049.60000
   1055.07,  2525.50000,  1054.00000
   1055.52,  2517.80000,  1053.50000
   1055.96,  2516.30000,  1060.20000
   1056.41,  2512.90000,  1061.30000
   1056.85,  2516.30000,  1056.80000
   1057.30,  2512.20000,  1062.70000
   1057.74,  2509.60000,  1064.70000
   1058.18,  2483.00000,  1069.70000
   1058.63,  2479.10000,  1083.30000
   1059.07,  2489.70000,  1090.80000
   1059.52,  2495.50000,  1098.10000
   1059.96,  2496.10000,  1100.10000
   1060.41,  2508.60000,  1093.70000
   1060.85,  2501.10000,  1083.70000
   1061.30,  2492.80000,  1090.60000
   1061.74,  2494.90000,  1085.60000
   1062.18,  2477.00000,  1085.80000
   1062.63,  2470.00000,  1091.10000
   1063.07,  2472.60000,  1096.60000
   1063.52,  2490.20000,  1098.90000
   1063.96,  2487.60000,  1110.20000
   1064.40,  2483.30000,  1109.60000
   1064.85,  2469.40000,  1106.70000
   1065.29,  2445.00000,  1110.60000
   1065.74,  2416.90000,  1116.70000
   1066.18,  2414.10000,  1118.40000
