2D Measure spectrum data V5.74

<< MEASURE 1 >>
Data count = 2048
Exposure time = 30000 msec
Average = 10
Inspected time = 2020/10/19 18:56

Wave-dcm-1,Dark spec.  ,Spectrum
    108.17,  2241.40000,   786.00000
    108.66,  2248.70000,   779.00000
    109.15,  2260.50000,   767.50000
    109.65,  2289.20000,   755.10000
    110.14,  2300.70000,   741.70000
    110.63,  2309.90000,   733.50000
    111.13,  2327.70000,   716.70000
    111.62,  2318.90000,   703.60000
    112.11,  2329.50000,   701.70000
    112.60,  2348.60000,   711.80000
    113.10,  2343.70000,   706.00000
    113.59,  2364.20000,   703.90000
    114.08,  2378.70000,   704.20000
    114.58,  2366.60000,   704.00000
    115.07,  2405.60000,   708.40000
    115.56,  2415.60000,   711.70000
    116.06,  2411.50000,   701.70000
    116.55,  2420.50000,   688.90000
    117.04,  2409.70000,   692.50000
    117.53,  2384.20000,   703.20000
    118.03,  2418.60000,   708.80000
    118.52,  2425.40000,   718.10000
    119.01,  2420.30000,   728.60000
    119.51,  2510.80000,   739.30000
    120.00,  2598.70000,   752.10000
    120.49,  2628.90000,   769.10000
    120.98,  2623.80000,   780.80000
    121.48,  2543.00000,   799.40000
    121.97,  2441.60000,   809.80000
    122.46,  2433.70000,   830.20000
    122.95,  2464.70000,   839.10000
    123.45,  2496.90000,   867.80000
    123.94,  2498.80000,   899.10000
    124.43,  2522.50000,   921.70000
    124.92,  2557.60000,   933.70000
    125.42,  2556.20000,   949.70000
    125.91,  2579.10000,   958.00000
    126.40,  2566.10000,   992.30000
    126.89,  2538.70000,  1016.50000
    127.39,  2532.40000,  1020.40000
    127.88,  2527.90000,  1030.80000
    128.37,  2524.70000,  1041.50000
    128.86,  2547.80000,  1058.60000
    129.35,  2542.40000,  1092.60000
    129.85,  2550.30000,  1117.40000
    130.34,  2540.30000,  1139.80000
    130.83,  2541.80000,  1160.30000
    131.32,  2549.90000,  1171.40000
    131.81,  2551.90000,  1180.10000
    132.31,  2553.20000,  1191.60000
    132.80,  2555.20000,  1192.30000
    133.29,  2534.20000,  1202.60000
    133.78,  2541.30000,  1207.70000
    134.27,  2560.70000,  1220.50000
    134.77,  2564.10000,  1241.00000
    135.26,  2588.20000,  1265.50000
    135.75,  2587.20000,  1279.30000
    136.24,  2602.20000,  1293.10000
    136.73,  2590.80000,  1291.90000
    137.23,  2607.20000,  1298.20000
    137.72,  2593.70000,  1308.60000
    138.21,  2590.70000,  1320.30000
    138.70,  2579.60000,  1328.60000
    139.19,  2617.20000,  1333.40000
    139.68,  2613.70000,  1328.60000
    140.18,  2614.70000,  1343.60000
    140.67,  2619.40000,  1355.10000
    141.16,  2621.60000,  1365.40000
    141.65,  2607.40000,  1374.80000
    142.14,  2604.60000,  1388.10000
    142.63,  2625.90000,  1406.70000
    143.13,  2620.80000,  1431.80000
    143.62,  2656.50000,  1444.30000
    144.11,  2663.60000,  1450.30000
    144.60,  2625.10000,  1464.80000
    145.09,  2613.40000,  1480.00000
    145.58,  2669.40000,  1502.50000
    146.07,  2685.60000,  1504.30000
    146.56,  2692.90000,  1523.10000
    147.06,  2681.90000,  1540.90000
    147.55,  2643.00000,  1569.80000
    148.04,  2605.00000,  1592.50000
    148.53,  2641.80000,  1608.10000
    149.02,  2623.70000,  1611.50000
    149.51,  2698.80000,  1638.40000
    150.00,  2750.40000,  1673.60000
    150.49,  2767.90000,  1704.70000
    150.99,  2762.10000,  1736.20000
    151.48,  2740.50000,  1763.40000
    151.97,  2663.00000,  1783.90000
    152.46,  2672.40000,  1808.70000
    152.95,  2653.20000,  1832.60000
    153.44,  2655.80000,  1831.30000
    153.93,  2673.10000,  1836.30000
    154.42,  2692.00000,  1850.40000
    154.91,  2672.70000,  1856.20000
    155.40,  2657.70000,  1874.50000
    155.89,  2641.90000,  1883.50000
    156.39,  2664.10000,  1874.20000
    156.88,  2641.00000,  1884.50000
    157.37,  2650.00000,  1900.20000
    157.86,  2652.40000,  1918.70000
    158.35,  2662.90000,  1956.40000
    158.84,  2679.50000,  1999.70000
    159.33,  2728.90000,  2029.40000
    159.82,  2742.20000,  2053.70000
    160.31,  2756.60000,  2067.90000
    160.80,  2793.70000,  2067.60000
    161.29,  2745.20000,  2070.80000
    161.78,  2711.90000,  2082.30000
    162.27,  2678.30000,  2088.80000
    162.76,  2673.10000,  2106.40000
    163.25,  2682.80000,  2122.30000
    163.74,  2720.30000,  2135.10000
    164.23,  2716.70000,  2162.60000
    164.72,  2742.90000,  2179.10000
    165.21,  2719.60000,  2183.00000
    165.70,  2697.30000,  2204.00000
    166.20,  2730.70000,  2215.70000
    166.69,  2752.70000,  2224.70000
    167.18,  2767.70000,  2235.80000
    167.67,  2772.80000,  2232.40000
    168.16,  2748.00000,  2212.40000
    168.65,  2696.80000,  2199.40000
    169.14,  2717.10000,  2195.90000
    169.63,  2715.60000,  2185.80000
    170.12,  2709.30000,  2177.50000
    170.61,  2697.70000,  2174.40000
    171.10,  2746.90000,  2172.80000
    171.59,  2744.90000,  2163.80000
    172.08,  2760.00000,  2158.90000
    172.57,  2760.60000,  2158.70000
    173.06,  2762.30000,  2149.40000
    173.55,  2746.90000,  2155.00000
    174.04,  2729.90000,  2163.00000
    174.53,  2724.00000,  2160.90000
    175.02,  2721.60000,  2163.00000
    175.50,  2745.00000,  2169.80000
    175.99,  2780.60000,  2151.80000
    176.48,  2810.40000,  2140.00000
    176.97,  2778.30000,  2133.90000
    177.46,  2776.60000,  2121.90000
    177.95,  2745.30000,  2121.50000
    178.44,  2733.60000,  2113.60000
    178.93,  2722.10000,  2106.40000
    179.42,  2748.60000,  2095.00000
    179.91,  2753.80000,  2110.10000
    180.40,  2757.30000,  2125.00000
    180.89,  2759.80000,  2145.90000
    181.38,  2751.40000,  2160.40000
    181.87,  2746.40000,  2170.40000
    182.36,  2747.00000,  2168.90000
    182.85,  2719.00000,  2173.50000
    183.34,  2733.10000,  2174.40000
    183.83,  2737.80000,  2163.90000
    184.32,  2731.60000,  2158.70000
    184.81,  2778.70000,  2132.90000
    185.29,  2774.60000,  2118.30000
    185.78,  2751.70000,  2101.90000
    186.27,  2758.40000,  2098.90000
    186.76,  2744.50000,  2091.70000
    187.25,  2717.80000,  2087.70000
    187.74,  2791.50000,  2087.10000
    188.23,  2811.80000,  2096.20000
    188.72,  2838.50000,  2091.10000
    189.21,  2826.00000,  2094.10000
    189.70,  2797.90000,  2094.50000
    190.19,  2766.80000,  2091.80000
    190.67,  2753.70000,  2102.20000
    191.16,  2749.30000,  2111.60000
    191.65,  2757.50000,  2100.20000
    192.14,  2743.80000,  2103.00000
    192.63,  2769.80000,  2105.90000
    193.12,  2787.40000,  2104.60000
    193.61,  2771.10000,  2103.40000
    194.10,  2783.30000,  2102.90000
    194.59,  2776.20000,  2097.70000
    195.07,  2764.00000,  2105.60000
    195.56,  2776.10000,  2113.50000
    196.05,  2763.10000,  2116.50000
    196.54,  2750.60000,  2122.20000
    197.03,  2766.00000,  2127.70000
    197.52,  2809.90000,  2126.60000
    198.01,  2824.50000,  2114.90000
    198.49,  2828.80000,  2109.90000
    198.98,  2822.60000,  2104.70000
    199.47,  2777.70000,  2097.40000
    199.96,  2754.70000,  2099.00000
    200.45,  2770.20000,  2083.20000
    200.94,  2750.60000,  2076.90000
    201.43,  2750.30000,  2082.60000
    201.91,  2749.80000,  2073.60000
    202.40,  2743.50000,  2063.80000
    202.89,  2751.80000,  2055.40000
    203.38,  2769.60000,  2054.90000
    203.87,  2763.90000,  2057.20000
    204.36,  2754.50000,  2056.60000
    204.84,  2754.10000,  2051.10000
    205.33,  2766.10000,  2061.40000
    205.82,  2782.90000,  2070.60000
    206.31,  2768.10000,  2098.70000
    206.80,  2763.20000,  2104.80000
    207.28,  2775.90000,  2105.90000
    207.77,  2783.50000,  2107.60000
    208.26,  2797.40000,  2113.90000
    208.75,  2808.00000,  2099.70000
    209.24,  2789.10000,  2093.90000
    209.72,  2802.00000,  2092.70000
    210.21,  2818.80000,  2111.70000
    210.70,  2797.40000,  2126.90000
    211.19,  2816.90000,  2151.20000
    211.68,  2831.50000,  2149.20000
    212.16,  2828.90000,  2163.80000
    212.65,  2826.40000,  2175.30000
    213.14,  2806.30000,  2184.50000
    213.63,  2792.60000,  2186.30000
    214.12,  2779.50000,  2195.50000
    214.60,  2801.30000,  2206.40000
    215.09,  2817.20000,  2228.10000
    215.58,  2815.60000,  2241.30000
    216.07,  2808.90000,  2254.40000
    216.55,  2811.40000,  2268.10000
    217.04,  2748.30000,  2279.40000
    217.53,  2747.20000,  2306.50000
    218.02,  2748.30000,  2327.80000
    218.50,  2754.90000,  2352.90000
    218.99,  2774.60000,  2387.40000
    219.48,  2796.40000,  2419.70000
    219.97,  2766.00000,  2439.40000
    220.45,  2775.60000,  2463.60000
    220.94,  2770.00000,  2478.90000
    221.43,  2781.40000,  2497.40000
    221.92,  2805.40000,  2513.90000
    222.40,  2803.40000,  2540.20000
    222.89,  2802.20000,  2558.00000
    223.38,  2819.80000,  2586.80000
    223.86,  2835.80000,  2593.40000
    224.35,  2858.30000,  2600.20000
    224.84,  2861.30000,  2599.80000
    225.33,  2843.90000,  2605.00000
    225.81,  2814.60000,  2600.90000
    226.30,  2795.10000,  2604.80000
    226.79,  2790.10000,  2595.20000
    227.27,  2782.60000,  2569.80000
    227.76,  2791.60000,  2531.80000
    228.25,  2821.30000,  2496.90000
    228.74,  2828.90000,  2460.70000
    229.22,  2843.10000,  2430.20000
    229.71,  2835.40000,  2404.50000
    230.20,  2814.60000,  2374.20000
    230.68,  2813.40000,  2336.10000
    231.17,  2800.40000,  2306.30000
    231.66,  2767.00000,  2281.70000
    232.14,  2755.80000,  2251.40000
    232.63,  2749.90000,  2210.60000
    233.12,  2773.80000,  2178.40000
    233.60,  2809.80000,  2141.80000
    234.09,  2789.70000,  2119.10000
    234.58,  2774.00000,  2102.10000
    235.06,  2774.50000,  2084.20000
    235.55,  2765.70000,  2072.50000
    236.04,  2759.30000,  2054.10000
    236.52,  2786.20000,  2019.10000
    237.01,  2763.30000,  2011.80000
    237.50,  2799.10000,  1994.90000
    237.98,  2797.50000,  1987.30000
    238.47,  2852.30000,  1988.80000
    238.96,  2858.10000,  1979.30000
    239.44,  2855.80000,  1957.70000
    239.93,  2851.30000,  1937.20000
    240.41,  2801.80000,  1920.80000
    240.90,  2729.90000,  1917.60000
    241.39,  2754.90000,  1916.90000
    241.87,  2796.90000,  1922.60000
    242.36,  2822.20000,  1922.40000
    242.85,  2867.80000,  1909.90000
    243.33,  2850.70000,  1907.30000
    243.82,  2820.20000,  1908.10000
    244.30,  2795.50000,  1900.80000
    244.79,  2806.90000,  1891.10000
    245.28,  2791.70000,  1887.20000
    245.76,  2786.70000,  1878.00000
    246.25,  2769.30000,  1875.20000
    246.74,  2787.40000,  1882.80000
    247.22,  2816.70000,  1878.70000
    247.71,  2818.80000,  1878.60000
    248.19,  2809.00000,  1888.40000
    248.68,  2807.00000,  1874.60000
    249.16,  2762.70000,  1872.30000
    249.65,  2796.30000,  1859.50000
    250.14,  2809.70000,  1853.60000
    250.62,  2788.60000,  1865.90000
    251.11,  2770.90000,  1873.20000
    251.59,  2758.80000,  1868.90000
    252.08,  2739.20000,  1875.80000
    252.57,  2762.60000,  1856.00000
    253.05,  2767.00000,  1848.00000
    253.54,  2804.40000,  1842.50000
    254.02,  2831.60000,  1841.10000
    254.51,  2841.50000,  1833.30000
    254.99,  2834.80000,  1842.70000
    255.48,  2805.30000,  1841.00000
    255.96,  2778.10000,  1837.40000
    256.45,  2802.10000,  1826.80000
    256.94,  2808.70000,  1823.10000
    257.42,  2797.40000,  1831.80000
    257.91,  2797.50000,  1842.20000
    258.39,  2794.50000,  1848.70000
    258.88,  2788.90000,  1842.00000
    259.36,  2812.10000,  1838.00000
    259.85,  2817.70000,  1829.40000
    260.33,  2826.50000,  1833.90000
    260.82,  2842.00000,  1836.30000
    261.30,  2852.90000,  1836.20000
    261.79,  2828.80000,  1834.00000
    262.27,  2807.00000,  1840.60000
    262.76,  2794.60000,  1840.60000
    263.24,  2794.70000,  1847.70000
    263.73,  2815.90000,  1859.80000
    264.22,  2809.60000,  1868.80000
    264.70,  2870.60000,  1872.20000
    265.19,  2892.40000,  1875.90000
    265.67,  2895.20000,  1872.60000
    266.16,  2870.80000,  1877.20000
    266.64,  2852.90000,  1878.00000
    267.13,  2790.10000,  1873.50000
    267.61,  2805.60000,  1869.60000
    268.10,  2820.00000,  1879.50000
    268.58,  2816.50000,  1890.30000
    269.06,  2813.20000,  1904.50000
    269.55,  2826.20000,  1917.40000
    270.03,  2834.30000,  1913.00000
    270.52,  2839.80000,  1914.40000
    271.00,  2849.10000,  1929.70000
    271.49,  2837.80000,  1940.10000
    271.97,  2833.70000,  1955.50000
    272.46,  2835.30000,  1969.40000
    272.94,  2841.80000,  1965.00000
    273.43,  2833.80000,  1983.20000
    273.91,  2806.50000,  2007.10000
    274.40,  2794.90000,  2008.50000
    274.88,  2783.00000,  2009.60000
    275.37,  2784.70000,  2013.10000
    275.85,  2788.60000,  2012.00000
    276.33,  2789.30000,  2026.00000
    276.82,  2799.40000,  2050.00000
    277.30,  2815.30000,  2064.40000
    277.79,  2811.10000,  2071.30000
    278.27,  2823.70000,  2079.80000
    278.76,  2839.90000,  2083.90000
    279.24,  2845.20000,  2083.50000
    279.73,  2838.10000,  2105.10000
    280.21,  2823.70000,  2143.40000
    280.69,  2797.70000,  2161.50000
    281.18,  2801.50000,  2165.60000
    281.66,  2816.50000,  2153.90000
    282.15,  2852.80000,  2136.10000
    282.63,  2846.70000,  2121.70000
    283.11,  2841.10000,  2122.20000
    283.60,  2840.00000,  2126.30000
    284.08,  2858.40000,  2128.30000
    284.57,  2832.30000,  2124.10000
    285.05,  2833.00000,  2123.50000
    285.53,  2807.20000,  2119.40000
    286.02,  2776.30000,  2121.60000
    286.50,  2792.90000,  2137.80000
    286.99,  2816.10000,  2147.30000
    287.47,  2800.10000,  2140.40000
    287.95,  2796.40000,  2142.80000
    288.44,  2794.10000,  2123.00000
    288.92,  2785.20000,  2112.00000
    289.41,  2796.60000,  2109.00000
    289.89,  2827.00000,  2094.90000
    290.37,  2829.70000,  2079.50000
    290.86,  2856.90000,  2077.30000
    291.34,  2830.40000,  2059.30000
    291.82,  2816.40000,  2047.30000
    292.31,  2792.80000,  2042.00000
    292.79,  2812.60000,  2030.20000
    293.28,  2807.40000,  2028.40000
    293.76,  2822.10000,  2014.40000
    294.24,  2821.70000,  2004.10000
    294.73,  2839.50000,  1995.60000
    295.21,  2842.50000,  1977.90000
    295.69,  2852.60000,  1957.20000
    296.18,  2822.60000,  1945.00000
    296.66,  2782.20000,  1915.70000
    297.14,  2781.80000,  1903.80000
    297.63,  2788.20000,  1907.00000
    298.11,  2806.10000,  1887.30000
    298.59,  2840.90000,  1869.60000
    299.08,  2843.70000,  1862.00000
    299.56,  2843.70000,  1850.10000
    300.04,  2866.30000,  1837.20000
    300.53,  2870.60000,  1827.30000
    301.01,  2869.10000,  1809.20000
    301.49,  2861.70000,  1792.60000
    301.98,  2823.50000,  1791.30000
    302.46,  2798.00000,  1789.20000
    302.94,  2796.50000,  1778.70000
    303.42,  2797.20000,  1767.70000
    303.91,  2781.50000,  1763.70000
    304.39,  2768.50000,  1748.40000
    304.87,  2771.80000,  1745.70000
    305.36,  2795.90000,  1738.30000
    305.84,  2828.20000,  1725.90000
    306.32,  2868.40000,  1710.00000
    306.81,  2852.00000,  1690.90000
    307.29,  2822.50000,  1673.00000
    307.77,  2813.70000,  1664.40000
    308.25,  2810.60000,  1660.60000
    308.74,  2820.40000,  1660.00000
    309.22,  2818.10000,  1665.90000
    309.70,  2797.50000,  1651.10000
    310.18,  2787.60000,  1634.00000
    310.67,  2802.20000,  1623.40000
    311.15,  2814.80000,  1617.40000
    311.63,  2827.40000,  1625.60000
    312.12,  2833.10000,  1637.10000
    312.60,  2802.40000,  1630.20000
    313.08,  2783.70000,  1610.50000
    313.56,  2778.80000,  1595.60000
    314.05,  2781.90000,  1574.80000
    314.53,  2804.80000,  1568.40000
    315.01,  2865.40000,  1559.90000
    315.49,  2854.70000,  1552.90000
    315.98,  2855.60000,  1549.00000
    316.46,  2831.00000,  1547.40000
    316.94,  2785.60000,  1561.70000
    317.42,  2774.10000,  1577.10000
    317.90,  2784.70000,  1568.70000
    318.39,  2764.60000,  1559.30000
    318.87,  2817.60000,  1547.30000
    319.35,  2840.40000,  1535.80000
    319.83,  2838.50000,  1549.20000
    320.32,  2852.80000,  1544.00000
    320.80,  2861.60000,  1535.40000
    321.28,  2820.60000,  1523.90000
    321.76,  2855.40000,  1513.20000
    322.24,  2853.50000,  1518.20000
    322.73,  2860.90000,  1528.00000
    323.21,  2870.80000,  1521.50000
    323.69,  2876.90000,  1531.60000
    324.17,  2830.70000,  1522.80000
    324.65,  2805.40000,  1511.00000
    325.14,  2806.80000,  1514.10000
    325.62,  2811.20000,  1518.10000
    326.10,  2859.40000,  1516.10000
    326.58,  2876.30000,  1517.90000
    327.06,  2838.20000,  1504.10000
    327.55,  2855.20000,  1495.90000
    328.03,  2880.90000,  1500.20000
    328.51,  2889.10000,  1511.50000
    328.99,  2906.00000,  1513.90000
    329.47,  2890.20000,  1517.60000
    329.95,  2812.50000,  1509.20000
    330.44,  2811.80000,  1514.00000
    330.92,  2779.40000,  1519.80000
    331.40,  2766.30000,  1517.00000
    331.88,  2759.60000,  1497.70000
    332.36,  2774.20000,  1494.90000
    332.84,  2804.60000,  1489.80000
    333.33,  2850.00000,  1485.00000
    333.81,  2861.20000,  1482.20000
    334.29,  2868.30000,  1477.00000
    334.77,  2858.30000,  1470.10000
    335.25,  2842.40000,  1470.40000
    335.73,  2856.10000,  1479.40000
    336.21,  2855.40000,  1472.30000
    336.69,  2839.80000,  1473.50000
    337.18,  2822.20000,  1477.60000
    337.66,  2798.90000,  1466.90000
    338.14,  2778.30000,  1456.80000
    338.62,  2768.80000,  1464.90000
    339.10,  2799.30000,  1460.30000
    339.58,  2838.00000,  1464.10000
    340.06,  2848.10000,  1464.80000
    340.54,  2858.90000,  1457.30000
    341.03,  2847.90000,  1450.90000
    341.51,  2823.00000,  1454.40000
    341.99,  2828.30000,  1452.50000
    342.47,  2831.80000,  1457.00000
    342.95,  2821.60000,  1454.10000
    343.43,  2821.70000,  1447.30000
    343.91,  2821.60000,  1441.50000
    344.39,  2802.70000,  1443.90000
    344.87,  2786.40000,  1445.00000
    345.35,  2798.60000,  1452.10000
    345.84,  2809.70000,  1456.90000
    346.32,  2864.30000,  1443.00000
    346.80,  2883.10000,  1438.60000
    347.28,  2875.80000,  1445.20000
    347.76,  2846.10000,  1434.00000
    348.24,  2838.70000,  1431.50000
    348.72,  2855.50000,  1433.30000
    349.20,  2883.10000,  1427.40000
    349.68,  2864.70000,  1426.70000
    350.16,  2831.30000,  1437.50000
    350.64,  2792.70000,  1435.10000
    351.12,  2775.40000,  1445.60000
    351.60,  2830.20000,  1454.60000
    352.08,  2868.80000,  1466.30000
    352.56,  2892.50000,  1455.60000
    353.04,  2889.80000,  1448.20000
    353.53,  2876.90000,  1433.40000
    354.01,  2856.00000,  1424.00000
    354.49,  2869.30000,  1424.90000
    354.97,  2864.00000,  1425.50000
    355.45,  2859.00000,  1431.80000
    355.93,  2832.30000,  1442.30000
    356.41,  2848.20000,  1442.70000
    356.89,  2834.80000,  1445.40000
    357.37,  2844.90000,  1444.70000
    357.85,  2822.60000,  1439.80000
    358.33,  2806.80000,  1449.30000
    358.81,  2783.70000,  1442.50000
    359.29,  2801.30000,  1444.80000
    359.77,  2826.50000,  1442.10000
    360.25,  2855.20000,  1429.30000
    360.73,  2848.20000,  1437.30000
    361.21,  2832.00000,  1452.20000
    361.69,  2838.60000,  1446.60000
    362.17,  2839.40000,  1457.50000
    362.65,  2854.80000,  1462.40000
    363.13,  2859.00000,  1453.90000
    363.61,  2853.60000,  1469.80000
    364.09,  2817.40000,  1474.70000
    364.57,  2815.80000,  1458.10000
    365.05,  2818.50000,  1454.70000
    365.53,  2807.70000,  1452.30000
    366.01,  2827.20000,  1456.80000
    366.49,  2870.30000,  1458.00000
    366.97,  2834.40000,  1451.50000
    367.45,  2849.60000,  1443.50000
    367.93,  2871.00000,  1451.70000
    368.41,  2861.70000,  1449.00000
    368.89,  2861.30000,  1459.10000
    369.37,  2873.90000,  1445.90000
    369.85,  2817.20000,  1451.10000
    370.33,  2824.60000,  1461.80000
    370.80,  2842.60000,  1476.80000
    371.28,  2846.30000,  1480.90000
    371.76,  2823.90000,  1484.40000
    372.24,  2808.50000,  1472.80000
    372.72,  2798.60000,  1475.40000
    373.20,  2812.40000,  1476.10000
    373.68,  2849.60000,  1474.00000
    374.16,  2879.10000,  1474.70000
    374.64,  2860.60000,  1480.60000
    375.12,  2828.00000,  1482.50000
    375.60,  2849.70000,  1486.20000
    376.08,  2827.80000,  1481.60000
    376.56,  2825.50000,  1479.80000
    377.04,  2828.50000,  1480.70000
    377.52,  2827.60000,  1495.10000
    377.99,  2817.10000,  1502.20000
    378.47,  2847.90000,  1502.50000
    378.95,  2825.00000,  1508.20000
    379.43,  2837.70000,  1511.90000
    379.91,  2841.50000,  1517.20000
    380.39,  2886.90000,  1536.90000
    380.87,  2916.70000,  1536.60000
    381.35,  2914.70000,  1528.00000
    381.83,  2885.10000,  1519.30000
    382.31,  2845.20000,  1516.60000
    382.79,  2809.30000,  1511.80000
    383.26,  2820.10000,  1524.20000
    383.74,  2822.10000,  1520.90000
    384.22,  2816.80000,  1524.40000
    384.70,  2815.70000,  1525.20000
    385.18,  2787.20000,  1535.60000
    385.66,  2803.70000,  1531.00000
    386.14,  2816.70000,  1533.00000
    386.62,  2833.50000,  1532.00000
    387.09,  2850.00000,  1535.00000
    387.57,  2856.30000,  1543.10000
    388.05,  2846.10000,  1556.50000
    388.53,  2846.50000,  1554.00000
    389.01,  2849.40000,  1555.90000
    389.49,  2869.70000,  1561.60000
    389.97,  2869.90000,  1560.60000
    390.44,  2861.60000,  1562.80000
    390.92,  2840.90000,  1567.90000
    391.40,  2819.60000,  1560.70000
    391.88,  2814.80000,  1569.20000
    392.36,  2822.10000,  1574.30000
    392.84,  2818.60000,  1576.00000
    393.32,  2839.50000,  1570.70000
    393.79,  2829.30000,  1569.70000
    394.27,  2884.70000,  1561.60000
    394.75,  2894.10000,  1567.10000
    395.23,  2885.50000,  1572.40000
    395.71,  2860.00000,  1572.70000
    396.18,  2866.60000,  1564.50000
    396.66,  2867.30000,  1554.00000
    397.14,  2905.50000,  1552.60000
    397.62,  2877.60000,  1551.50000
    398.10,  2861.80000,  1565.00000
    398.58,  2842.90000,  1569.30000
    399.05,  2850.10000,  1571.70000
    399.53,  2858.10000,  1564.80000
    400.01,  2845.90000,  1572.70000
    400.49,  2821.60000,  1574.60000
    400.97,  2800.80000,  1578.90000
    401.44,  2772.20000,  1574.30000
    401.92,  2801.70000,  1573.70000
    402.40,  2809.60000,  1558.30000
    402.88,  2837.70000,  1548.00000
    403.36,  2858.10000,  1543.50000
    403.83,  2872.20000,  1541.20000
    404.31,  2831.40000,  1552.20000
    404.79,  2848.60000,  1557.10000
    405.27,  2829.00000,  1551.00000
    405.74,  2822.10000,  1541.00000
    406.22,  2844.30000,  1534.70000
    406.70,  2860.90000,  1530.50000
    407.18,  2841.70000,  1520.40000
    407.65,  2834.60000,  1505.80000
    408.13,  2806.80000,  1502.00000
    408.61,  2810.30000,  1504.30000
    409.09,  2824.30000,  1502.30000
    409.56,  2828.10000,  1505.40000
    410.04,  2841.90000,  1498.30000
    410.52,  2839.90000,  1493.00000
    411.00,  2816.70000,  1485.00000
    411.47,  2811.60000,  1482.80000
    411.95,  2800.00000,  1470.30000
    412.43,  2806.50000,  1457.60000
    412.91,  2808.70000,  1463.50000
    413.38,  2832.50000,  1466.90000
    413.86,  2842.40000,  1463.60000
    414.34,  2840.30000,  1462.90000
    414.82,  2842.70000,  1456.90000
    415.29,  2840.50000,  1452.30000
    415.77,  2841.10000,  1463.70000
    416.25,  2843.20000,  1461.50000
    416.72,  2838.80000,  1458.70000
    417.20,  2820.90000,  1452.00000
    417.68,  2785.80000,  1443.80000
    418.16,  2781.90000,  1440.30000
    418.63,  2810.60000,  1441.90000
    419.11,  2820.80000,  1428.20000
    419.59,  2832.70000,  1425.40000
    420.06,  2803.00000,  1429.90000
    420.54,  2768.90000,  1433.40000
    421.02,  2787.60000,  1424.30000
    421.50,  2808.80000,  1422.50000
    421.97,  2819.30000,  1412.00000
    422.45,  2822.60000,  1412.60000
    422.93,  2810.20000,  1422.50000
    423.40,  2800.70000,  1421.10000
    423.88,  2810.90000,  1406.40000
    424.36,  2811.00000,  1395.30000
    424.83,  2813.60000,  1395.00000
    425.31,  2827.20000,  1401.90000
    425.79,  2873.70000,  1397.70000
    426.26,  2918.80000,  1391.40000
    426.74,  2908.30000,  1382.90000
    427.22,  2887.90000,  1381.90000
    427.69,  2866.50000,  1388.50000
    428.17,  2840.10000,  1395.90000
    428.65,  2825.70000,  1387.00000
    429.12,  2856.40000,  1393.50000
    429.60,  2840.90000,  1400.20000
    430.08,  2845.80000,  1406.90000
    430.55,  2853.50000,  1403.30000
    431.03,  2853.60000,  1397.70000
    431.50,  2847.40000,  1393.80000
    431.98,  2848.80000,  1388.50000
    432.46,  2858.40000,  1374.80000
    432.93,  2839.30000,  1366.90000
    433.41,  2815.70000,  1361.50000
    433.89,  2810.60000,  1360.40000
    434.36,  2810.20000,  1371.00000
    434.84,  2805.30000,  1372.10000
    435.31,  2829.00000,  1368.80000
    435.79,  2824.60000,  1379.90000
    436.27,  2817.50000,  1385.80000
    436.74,  2822.10000,  1382.40000
    437.22,  2827.20000,  1377.90000
    437.70,  2824.00000,  1369.30000
    438.17,  2817.70000,  1358.50000
    438.65,  2808.90000,  1359.20000
    439.12,  2820.70000,  1354.70000
    439.60,  2820.50000,  1365.50000
    440.08,  2830.80000,  1378.30000
    440.55,  2813.90000,  1395.70000
    441.03,  2823.30000,  1398.10000
    441.50,  2822.90000,  1384.20000
    441.98,  2844.30000,  1362.30000
    442.45,  2838.60000,  1358.60000
    442.93,  2838.20000,  1353.60000
    443.41,  2818.60000,  1356.80000
    443.88,  2821.40000,  1359.70000
    444.36,  2814.30000,  1355.70000
    444.83,  2815.30000,  1357.60000
    445.31,  2823.40000,  1354.40000
    445.78,  2805.10000,  1354.10000
    446.26,  2806.90000,  1350.90000
    446.74,  2798.90000,  1358.60000
    447.21,  2824.80000,  1358.80000
    447.69,  2843.60000,  1361.80000
    448.16,  2864.00000,  1361.60000
    448.64,  2839.00000,  1362.20000
    449.11,  2821.70000,  1359.70000
    449.59,  2816.50000,  1363.60000
    450.06,  2825.30000,  1359.10000
    450.54,  2829.80000,  1362.90000
    451.02,  2856.00000,  1374.70000
    451.49,  2864.40000,  1375.20000
    451.97,  2857.90000,  1380.40000
    452.44,  2850.30000,  1368.40000
    452.92,  2831.90000,  1361.90000
    453.39,  2813.70000,  1357.90000
    453.87,  2822.60000,  1355.80000
    454.34,  2824.30000,  1362.40000
    454.82,  2824.70000,  1370.20000
    455.29,  2834.20000,  1369.60000
    455.77,  2840.20000,  1376.20000
    456.24,  2816.30000,  1374.90000
    456.72,  2800.90000,  1367.70000
    457.19,  2794.90000,  1363.30000
    457.67,  2805.60000,  1359.70000
    458.14,  2836.30000,  1359.40000
    458.62,  2841.50000,  1366.60000
    459.09,  2833.40000,  1370.30000
    459.57,  2809.50000,  1375.20000
    460.04,  2815.10000,  1372.20000
    460.52,  2815.10000,  1372.50000
    460.99,  2815.80000,  1366.00000
    461.47,  2810.40000,  1362.30000
    461.94,  2792.70000,  1355.10000
    462.42,  2779.90000,  1360.60000
    462.89,  2803.80000,  1360.50000
    463.37,  2817.80000,  1370.60000
    463.84,  2824.60000,  1370.50000
    464.32,  2828.50000,  1367.20000
    464.79,  2820.90000,  1365.60000
    465.26,  2822.80000,  1368.50000
    465.74,  2816.30000,  1365.60000
    466.21,  2835.10000,  1371.20000
    466.69,  2842.60000,  1372.60000
    467.16,  2840.90000,  1375.90000
    467.64,  2821.50000,  1383.00000
    468.11,  2807.10000,  1383.60000
    468.59,  2803.50000,  1371.80000
    469.06,  2827.60000,  1358.20000
    469.54,  2858.00000,  1353.00000
    470.01,  2860.00000,  1355.40000
    470.48,  2810.70000,  1371.80000
    470.96,  2816.80000,  1381.10000
    471.43,  2842.70000,  1382.80000
    471.91,  2869.50000,  1373.10000
    472.38,  2903.40000,  1372.60000
    472.86,  2883.70000,  1364.50000
    473.33,  2823.80000,  1362.00000
    473.80,  2806.50000,  1367.40000
    474.28,  2820.60000,  1366.70000
    474.75,  2833.10000,  1368.50000
    475.23,  2864.90000,  1382.70000
    475.70,  2862.20000,  1387.10000
    476.17,  2836.20000,  1387.70000
    476.65,  2832.90000,  1384.70000
    477.12,  2847.70000,  1367.70000
    477.60,  2817.80000,  1353.20000
    478.07,  2827.00000,  1348.50000
    478.54,  2836.20000,  1350.60000
    479.02,  2839.90000,  1356.50000
    479.49,  2873.20000,  1354.50000
    479.97,  2879.80000,  1355.60000
    480.44,  2866.00000,  1354.50000
    480.91,  2832.30000,  1363.70000
    481.39,  2817.70000,  1368.20000
    481.86,  2817.90000,  1363.90000
    482.34,  2804.10000,  1364.60000
    482.81,  2818.30000,  1365.90000
    483.28,  2848.40000,  1366.80000
    483.76,  2835.10000,  1372.00000
    484.23,  2864.20000,  1362.70000
    484.70,  2862.50000,  1346.50000
    485.18,  2851.80000,  1349.30000
    485.65,  2857.20000,  1350.20000
    486.12,  2855.10000,  1351.00000
    486.60,  2830.50000,  1363.30000
    487.07,  2829.10000,  1361.60000
    487.55,  2843.00000,  1357.60000
    488.02,  2859.50000,  1356.60000
    488.49,  2862.10000,  1350.70000
    488.97,  2873.70000,  1353.50000
    489.44,  2868.30000,  1357.50000
    489.91,  2831.80000,  1362.50000
    490.39,  2825.60000,  1363.50000
    490.86,  2788.10000,  1361.40000
    491.33,  2747.40000,  1371.70000
    491.81,  2782.00000,  1382.00000
    492.28,  2827.00000,  1371.70000
    492.75,  2828.10000,  1367.10000
    493.23,  2878.30000,  1358.80000
    493.70,  2900.60000,  1344.60000
    494.17,  2888.20000,  1345.80000
    494.64,  2880.00000,  1345.10000
    495.12,  2842.80000,  1343.60000
    495.59,  2843.30000,  1346.50000
    496.06,  2871.20000,  1354.30000
    496.54,  2888.10000,  1358.50000
    497.01,  2867.20000,  1359.60000
    497.48,  2842.70000,  1364.90000
    497.96,  2817.50000,  1366.20000
    498.43,  2845.20000,  1369.60000
    498.90,  2842.30000,  1372.40000
    499.37,  2861.90000,  1376.70000
    499.85,  2835.40000,  1369.90000
    500.32,  2837.40000,  1357.90000
    500.79,  2830.20000,  1347.50000
    501.27,  2838.10000,  1349.00000
    501.74,  2826.60000,  1356.70000
    502.21,  2828.40000,  1356.50000
    502.68,  2811.90000,  1362.10000
    503.16,  2808.30000,  1349.00000
    503.63,  2800.20000,  1339.40000
    504.10,  2819.20000,  1328.50000
    504.57,  2812.50000,  1326.70000
    505.05,  2829.10000,  1329.00000
    505.52,  2848.60000,  1337.50000
    505.99,  2842.60000,  1333.60000
    506.46,  2832.70000,  1334.30000
    506.94,  2821.90000,  1335.20000
    507.41,  2803.90000,  1338.30000
    507.88,  2801.10000,  1342.90000
    508.35,  2805.50000,  1327.00000
    508.83,  2797.20000,  1315.90000
    509.30,  2830.30000,  1310.40000
    509.77,  2840.70000,  1318.50000
    510.24,  2839.00000,  1328.60000
    510.72,  2817.20000,  1337.00000
    511.19,  2802.60000,  1343.30000
    511.66,  2795.70000,  1352.60000
    512.13,  2823.30000,  1352.70000
    512.60,  2808.20000,  1347.60000
    513.08,  2799.80000,  1336.80000
    513.55,  2796.30000,  1334.60000
    514.02,  2781.90000,  1338.80000
    514.49,  2781.30000,  1349.90000
    514.97,  2796.50000,  1343.40000
    515.44,  2809.50000,  1338.20000
    515.91,  2810.90000,  1332.50000
    516.38,  2818.80000,  1332.50000
    516.85,  2783.90000,  1332.20000
    517.33,  2762.80000,  1333.70000
    517.80,  2767.20000,  1323.50000
    518.27,  2789.20000,  1327.30000
    518.74,  2832.70000,  1328.60000
    519.21,  2852.10000,  1338.60000
    519.68,  2828.50000,  1344.40000
    520.16,  2798.50000,  1348.20000
    520.63,  2780.20000,  1351.00000
    521.10,  2774.80000,  1351.00000
    521.57,  2813.10000,  1342.40000
    522.04,  2819.70000,  1336.60000
    522.52,  2823.10000,  1333.00000
    522.99,  2804.60000,  1339.70000
    523.46,  2819.50000,  1331.90000
    523.93,  2828.00000,  1332.60000
    524.40,  2857.00000,  1330.00000
    524.87,  2847.20000,  1327.50000
    525.34,  2840.70000,  1332.60000
    525.82,  2829.70000,  1335.80000
    526.29,  2834.60000,  1336.30000
    526.76,  2831.10000,  1344.00000
    527.23,  2835.90000,  1352.80000
    527.70,  2810.30000,  1356.00000
    528.17,  2800.30000,  1358.10000
    528.64,  2803.80000,  1347.70000
    529.12,  2815.40000,  1345.80000
    529.59,  2824.10000,  1341.50000
    530.06,  2829.20000,  1345.50000
    530.53,  2860.30000,  1352.60000
    531.00,  2823.00000,  1372.30000
    531.47,  2775.40000,  1383.00000
    531.94,  2771.50000,  1379.10000
    532.41,  2766.20000,  1378.50000
    532.89,  2793.90000,  1365.70000
    533.36,  2857.40000,  1359.60000
    533.83,  2847.80000,  1355.20000
    534.30,  2830.00000,  1363.40000
    534.77,  2847.40000,  1363.70000
    535.24,  2850.40000,  1376.30000
    535.71,  2839.80000,  1380.90000
    536.18,  2847.50000,  1385.30000
    536.65,  2833.90000,  1395.30000
    537.13,  2806.40000,  1404.70000
    537.60,  2786.60000,  1409.70000
    538.07,  2787.30000,  1418.00000
    538.54,  2778.00000,  1417.90000
    539.01,  2808.80000,  1412.60000
    539.48,  2845.30000,  1419.50000
    539.95,  2861.50000,  1417.00000
    540.42,  2857.30000,  1421.60000
    540.89,  2839.80000,  1423.90000
    541.36,  2815.10000,  1429.50000
    541.83,  2814.20000,  1424.80000
    542.30,  2813.00000,  1431.70000
    542.77,  2818.50000,  1442.50000
    543.25,  2835.20000,  1454.00000
    543.72,  2835.20000,  1462.10000
    544.19,  2832.50000,  1473.70000
    544.66,  2817.40000,  1470.40000
    545.13,  2809.80000,  1468.50000
    545.60,  2790.60000,  1473.00000
    546.07,  2817.50000,  1475.80000
    546.54,  2823.10000,  1482.80000
    547.01,  2825.30000,  1495.60000
    547.48,  2829.40000,  1493.60000
    547.95,  2829.40000,  1490.70000
    548.42,  2805.10000,  1499.90000
    548.89,  2837.40000,  1498.20000
    549.36,  2828.80000,  1492.30000
    549.83,  2813.30000,  1499.30000
    550.30,  2862.20000,  1502.60000
    550.77,  2869.40000,  1501.20000
    551.24,  2871.90000,  1509.70000
    551.71,  2886.00000,  1515.90000
    552.18,  2855.10000,  1518.20000
    552.65,  2799.20000,  1523.60000
    553.12,  2818.10000,  1530.20000
    553.59,  2823.30000,  1528.30000
    554.06,  2824.00000,  1531.40000
    554.53,  2839.00000,  1534.40000
    555.00,  2831.30000,  1540.60000
    555.47,  2826.90000,  1542.00000
    555.94,  2821.70000,  1543.20000
    556.41,  2820.00000,  1550.40000
    556.88,  2795.40000,  1555.50000
    557.35,  2791.80000,  1557.10000
    557.82,  2783.00000,  1559.90000
    558.29,  2797.90000,  1557.60000
    558.76,  2844.30000,  1550.40000
    559.23,  2857.00000,  1560.80000
    559.70,  2855.30000,  1569.00000
    560.17,  2835.70000,  1579.00000
    560.64,  2824.20000,  1572.60000
    561.11,  2806.80000,  1568.00000
    561.58,  2841.20000,  1558.90000
    562.05,  2824.20000,  1567.40000
    562.52,  2835.30000,  1566.70000
    562.99,  2830.80000,  1573.50000
    563.46,  2847.10000,  1553.70000
    563.93,  2837.00000,  1552.60000
    564.40,  2836.20000,  1562.00000
    564.87,  2834.20000,  1570.00000
    565.34,  2856.50000,  1563.50000
    565.81,  2848.00000,  1570.10000
    566.28,  2841.40000,  1560.90000
    566.74,  2818.80000,  1559.90000
    567.21,  2801.90000,  1577.80000
    567.68,  2818.60000,  1576.80000
    568.15,  2818.40000,  1571.40000
    568.62,  2807.50000,  1578.50000
    569.09,  2793.60000,  1589.80000
    569.56,  2787.50000,  1581.50000
    570.03,  2790.50000,  1582.30000
    570.50,  2837.70000,  1569.10000
    570.97,  2845.80000,  1557.40000
    571.44,  2833.90000,  1562.90000
    571.91,  2831.10000,  1581.10000
    572.38,  2817.10000,  1580.10000
    572.84,  2801.20000,  1577.70000
    573.31,  2825.20000,  1561.70000
    573.78,  2830.80000,  1545.10000
    574.25,  2819.80000,  1546.50000
    574.72,  2830.80000,  1556.40000
    575.19,  2818.20000,  1567.70000
    575.66,  2812.10000,  1565.60000
    576.13,  2808.00000,  1561.50000
    576.60,  2815.20000,  1562.90000
    577.07,  2846.50000,  1562.20000
    577.53,  2865.90000,  1565.10000
    578.00,  2866.30000,  1562.40000
    578.47,  2862.10000,  1544.40000
    578.94,  2838.20000,  1539.70000
    579.41,  2804.60000,  1542.70000
    579.88,  2825.80000,  1539.40000
    580.35,  2820.90000,  1556.10000
    580.82,  2827.20000,  1555.90000
    581.28,  2848.60000,  1553.40000
    581.75,  2847.80000,  1547.10000
    582.22,  2832.10000,  1544.20000
    582.69,  2831.60000,  1553.10000
    583.16,  2826.20000,  1560.30000
    583.63,  2824.90000,  1550.90000
    584.10,  2853.40000,  1550.10000
    584.56,  2874.20000,  1536.00000
    585.03,  2852.50000,  1551.20000
    585.50,  2867.10000,  1530.10000
    585.97,  2870.20000,  1487.30000
    586.44,  2994.90000,  1353.20000
    586.91,  3090.20000,  1273.50000
    587.37,  3089.00000,  1276.80000
    587.84,  2984.70000,  1379.10000
    588.31,  2875.30000,  1479.00000
    588.78,  2747.40000,  1571.50000
    589.25,  2797.90000,  1554.20000
    589.72,  2804.50000,  1534.10000
    590.18,  2833.00000,  1524.20000
    590.65,  2855.40000,  1522.90000
    591.12,  2844.20000,  1523.70000
    591.59,  2848.00000,  1514.30000
    592.06,  2837.20000,  1513.20000
    592.52,  2791.50000,  1510.10000
    592.99,  2807.80000,  1508.90000
    593.46,  2793.40000,  1526.80000
    593.93,  2754.60000,  1529.80000
    594.40,  2781.90000,  1527.80000
    594.86,  2810.00000,  1514.70000
    595.33,  2825.50000,  1511.80000
    595.80,  2846.00000,  1509.40000
    596.27,  2840.70000,  1530.30000
    596.74,  2816.40000,  1534.20000
    597.20,  2813.50000,  1531.40000
    597.67,  2824.30000,  1524.90000
    598.14,  2807.30000,  1521.60000
    598.61,  2798.20000,  1514.70000
    599.07,  2806.80000,  1502.90000
    599.54,  2801.30000,  1495.20000
    600.01,  2797.60000,  1493.30000
    600.48,  2849.00000,  1505.50000
    600.95,  2867.20000,  1518.10000
    601.41,  2878.20000,  1510.70000
    601.88,  2864.70000,  1496.70000
    602.35,  2806.00000,  1492.90000
    602.82,  2751.80000,  1490.70000
    603.28,  2767.00000,  1491.60000
    603.75,  2763.00000,  1491.60000
    604.22,  2791.80000,  1476.70000
    604.69,  2809.80000,  1478.60000
    605.15,  2816.50000,  1486.10000
    605.62,  2812.10000,  1475.40000
    606.09,  2815.40000,  1471.00000
    606.56,  2802.30000,  1458.90000
    607.02,  2802.70000,  1448.90000
    607.49,  2802.30000,  1443.80000
    607.96,  2824.00000,  1445.20000
    608.42,  2819.90000,  1437.50000
    608.89,  2868.70000,  1430.10000
    609.36,  2884.20000,  1424.80000
    609.83,  2865.30000,  1435.60000
    610.29,  2833.80000,  1442.00000
    610.76,  2805.30000,  1445.10000
    611.23,  2786.80000,  1449.40000
    611.69,  2811.20000,  1443.40000
    612.16,  2812.40000,  1427.40000
    612.63,  2808.10000,  1427.10000
    613.10,  2794.20000,  1419.80000
    613.56,  2777.70000,  1409.70000
    614.03,  2793.20000,  1411.00000
    614.50,  2807.50000,  1409.40000
    614.96,  2819.70000,  1403.30000
    615.43,  2831.00000,  1397.10000
    615.90,  2847.60000,  1389.20000
    616.36,  2846.20000,  1377.00000
    616.83,  2829.00000,  1378.50000
    617.30,  2817.70000,  1389.20000
    617.76,  2780.50000,  1401.60000
    618.23,  2761.30000,  1395.10000
    618.70,  2758.00000,  1384.80000
    619.16,  2771.30000,  1369.80000
    619.63,  2778.00000,  1359.30000
    620.10,  2783.40000,  1370.50000
    620.56,  2781.90000,  1369.00000
    621.03,  2807.00000,  1366.10000
    621.50,  2818.30000,  1357.50000
    621.96,  2824.30000,  1353.30000
    622.43,  2826.10000,  1352.30000
    622.90,  2823.80000,  1365.00000
    623.36,  2830.30000,  1362.80000
    623.83,  2826.50000,  1365.50000
    624.30,  2821.60000,  1350.80000
    624.76,  2812.10000,  1344.60000
    625.23,  2819.00000,  1334.90000
    625.70,  2833.10000,  1323.40000
    626.16,  2839.20000,  1315.50000
    626.63,  2811.20000,  1308.50000
    627.09,  2806.30000,  1304.80000
    627.56,  2812.80000,  1317.90000
    628.03,  2812.40000,  1320.70000
    628.49,  2823.80000,  1312.80000
    628.96,  2805.60000,  1316.20000
    629.43,  2806.80000,  1299.40000
    629.89,  2805.20000,  1296.20000
    630.36,  2812.70000,  1295.50000
    630.82,  2797.00000,  1300.90000
    631.29,  2794.70000,  1293.50000
    631.76,  2777.00000,  1296.30000
    632.22,  2773.30000,  1283.10000
    632.69,  2786.90000,  1280.50000
    633.15,  2811.30000,  1274.90000
    633.62,  2838.00000,  1271.00000
    634.09,  2846.70000,  1268.90000
    634.55,  2845.80000,  1268.40000
    635.02,  2814.10000,  1268.60000
    635.48,  2805.00000,  1275.60000
    635.95,  2804.80000,  1271.40000
    636.42,  2813.70000,  1258.90000
    636.88,  2795.70000,  1260.90000
    637.35,  2787.10000,  1252.00000
    637.81,  2801.10000,  1238.00000
    638.28,  2805.40000,  1239.10000
    638.74,  2830.40000,  1231.20000
    639.21,  2835.00000,  1233.20000
    639.68,  2806.70000,  1245.90000
    640.14,  2777.30000,  1256.50000
    640.61,  2790.90000,  1248.50000
    641.07,  2769.40000,  1246.70000
    641.54,  2784.50000,  1250.60000
    642.00,  2799.40000,  1251.30000
    642.47,  2814.30000,  1247.00000
    642.93,  2820.30000,  1240.50000
    643.40,  2820.60000,  1224.70000
    643.87,  2799.50000,  1222.70000
    644.33,  2796.70000,  1230.90000
    644.80,  2806.40000,  1225.20000
    645.26,  2792.40000,  1230.80000
    645.73,  2791.30000,  1223.30000
    646.19,  2788.90000,  1215.50000
    646.66,  2791.40000,  1223.10000
    647.12,  2784.20000,  1222.50000
    647.59,  2786.60000,  1220.60000
    648.05,  2785.60000,  1227.30000
    648.52,  2777.10000,  1223.30000
    648.98,  2780.10000,  1214.60000
    649.45,  2778.90000,  1212.80000
    649.91,  2762.80000,  1206.30000
    650.38,  2761.60000,  1205.90000
    650.84,  2811.10000,  1196.60000
    651.31,  2802.20000,  1202.40000
    651.77,  2802.70000,  1206.40000
    652.24,  2782.40000,  1206.70000
    652.70,  2757.80000,  1210.10000
    653.17,  2745.00000,  1216.50000
    653.63,  2776.70000,  1210.00000
    654.10,  2768.10000,  1210.50000
    654.56,  2787.90000,  1194.80000
    655.03,  2791.10000,  1182.80000
    655.49,  2794.50000,  1183.20000
    655.96,  2793.90000,  1190.20000
    656.42,  2778.60000,  1198.10000
    656.89,  2761.40000,  1205.60000
    657.35,  2821.90000,  1195.30000
    657.82,  2872.50000,  1185.70000
    658.28,  2908.70000,  1177.00000
    658.75,  2919.80000,  1173.10000
    659.21,  2874.40000,  1170.50000
    659.68,  2842.70000,  1172.60000
    660.14,  2838.20000,  1158.00000
    660.61,  2804.80000,  1147.20000
    661.07,  2830.30000,  1150.90000
    661.53,  2834.40000,  1164.30000
    662.00,  2852.60000,  1160.70000
    662.46,  2850.10000,  1164.90000
    662.93,  2843.00000,  1138.10000
    663.39,  2822.00000,  1116.30000
    663.86,  2850.80000,  1113.40000
    664.32,  2844.40000,  1121.20000
    664.79,  2863.10000,  1119.90000
    665.25,  2843.50000,  1132.50000
    665.71,  2813.80000,  1137.00000
    666.18,  2776.70000,  1130.80000
    666.64,  2792.20000,  1131.80000
    667.11,  2796.70000,  1127.50000
    667.57,  2819.50000,  1118.60000
    668.04,  2845.50000,  1111.20000
    668.50,  2831.30000,  1115.80000
    668.96,  2805.60000,  1113.90000
    669.43,  2826.80000,  1117.40000
    669.89,  2805.30000,  1114.00000
    670.36,  2790.90000,  1111.40000
    670.82,  2787.30000,  1112.90000
    671.28,  2793.60000,  1106.20000
    671.75,  2796.20000,  1097.30000
    672.21,  2825.80000,  1087.30000
    672.68,  2824.50000,  1086.40000
    673.14,  2833.00000,  1095.80000
    673.60,  2838.80000,  1112.60000
    674.07,  2821.90000,  1102.80000
    674.53,  2792.80000,  1091.10000
    675.00,  2783.90000,  1077.00000
    675.46,  2769.80000,  1079.70000
    675.92,  2775.00000,  1077.60000
    676.39,  2817.80000,  1077.60000
    676.85,  2822.90000,  1058.90000
    677.31,  2832.00000,  1049.10000
    677.78,  2834.50000,  1048.20000
    678.24,  2814.50000,  1061.80000
    678.70,  2796.40000,  1062.60000
    679.17,  2782.90000,  1060.40000
    679.63,  2750.00000,  1060.90000
    680.10,  2750.50000,  1059.30000
    680.56,  2776.00000,  1060.40000
    681.02,  2782.20000,  1054.30000
    681.49,  2818.60000,  1042.90000
    681.95,  2813.90000,  1038.70000
    682.41,  2801.50000,  1047.20000
    682.88,  2791.80000,  1051.70000
    683.34,  2785.50000,  1051.30000
    683.80,  2765.80000,  1047.80000
    684.27,  2787.40000,  1044.10000
    684.73,  2790.00000,  1046.50000
    685.19,  2817.90000,  1037.70000
    685.66,  2847.00000,  1028.30000
    686.12,  2846.30000,  1019.40000
    686.58,  2860.80000,  1022.30000
    687.05,  2850.50000,  1026.50000
    687.51,  2830.80000,  1027.70000
    687.97,  2817.90000,  1021.80000
    688.44,  2823.00000,  1020.50000
    688.90,  2815.50000,  1021.20000
    689.36,  2815.60000,  1020.40000
    689.83,  2818.40000,  1013.60000
    690.29,  2830.70000,  1000.00000
    690.75,  2841.20000,   995.40000
    691.21,  2846.10000,   995.60000
    691.68,  2828.90000,   991.30000
    692.14,  2796.70000,   999.00000
    692.60,  2815.20000,   998.90000
    693.07,  2799.60000,   996.20000
    693.53,  2820.20000,   993.70000
    693.99,  2829.10000,   989.70000
    694.45,  2828.80000,   978.70000
    694.92,  2845.50000,   984.00000
    695.38,  2863.90000,   981.40000
    695.84,  2840.10000,   985.20000
    696.31,  2823.50000,   986.30000
    696.77,  2842.30000,   971.50000
    697.23,  2835.80000,   968.00000
    697.69,  2838.10000,   967.40000
    698.16,  2826.80000,   963.30000
    698.62,  2802.40000,   971.60000
    699.08,  2770.60000,   976.90000
    699.54,  2744.80000,  1006.50000
    700.01,  2824.60000,   918.40000
    700.47,  2876.20000,   858.20000
    700.93,  2899.70000,   839.40000
    701.39,  2890.80000,   854.80000
    701.86,  2851.70000,   905.80000
    702.32,  2761.50000,   993.10000
    702.78,  2807.80000,   950.00000
    703.24,  2809.30000,   938.50000
    703.71,  2807.30000,   941.20000
    704.17,  2814.10000,   937.20000
    704.63,  2801.30000,   940.20000
    705.09,  2783.00000,   940.30000
    705.56,  2812.60000,   939.30000
    706.02,  2819.20000,   936.80000
    706.48,  2807.20000,   939.30000
    706.94,  2799.20000,   946.80000
    707.40,  2771.10000,   953.50000
    707.87,  2766.20000,   953.70000
    708.33,  2785.50000,   947.60000
    708.79,  2777.60000,   942.20000
    709.25,  2751.80000,   929.00000
    709.72,  2757.00000,   932.10000
    710.18,  2775.00000,   934.20000
    710.64,  2785.00000,   931.80000
    711.10,  2780.00000,   930.90000
    711.56,  2788.30000,   928.20000
    712.03,  2803.50000,   917.80000
    712.49,  2830.60000,   915.00000
    712.95,  2849.20000,   920.40000
    713.41,  2832.40000,   923.20000
    713.87,  2816.30000,   924.70000
    714.33,  2806.20000,   927.30000
    714.80,  2795.10000,   929.10000
    715.26,  2765.40000,   917.70000
    715.72,  2769.60000,   913.40000
    716.18,  2768.90000,   910.60000
    716.64,  2785.40000,   907.10000
    717.11,  2784.20000,   913.20000
    717.57,  2778.10000,   922.40000
    718.03,  2748.80000,   914.80000
    718.49,  2768.90000,   902.10000
    718.95,  2811.90000,   897.20000
    719.41,  2819.10000,   900.60000
    719.87,  2791.20000,   906.00000
    720.34,  2785.50000,   906.80000
    720.80,  2770.30000,   909.00000
    721.26,  2763.40000,   909.60000
    721.72,  2797.60000,   896.20000
    722.18,  2787.00000,   892.60000
    722.64,  2759.70000,   892.60000
    723.10,  2769.70000,   888.80000
    723.57,  2780.70000,   893.60000
    724.03,  2784.10000,   909.00000
    724.49,  2788.20000,   900.20000
    724.95,  2753.30000,   905.30000
    725.41,  2812.30000,   893.90000
    725.87,  2855.00000,   893.70000
    726.33,  2881.10000,   879.20000
    726.80,  2889.20000,   870.50000
    727.26,  2848.00000,   866.00000
    727.72,  2763.90000,   877.10000
    728.18,  2770.00000,   878.60000
    728.64,  2756.90000,   900.40000
    729.10,  2765.30000,   904.60000
    729.56,  2794.30000,   895.20000
    730.02,  2821.60000,   892.10000
    730.48,  2821.40000,   883.90000
    730.94,  2803.20000,   885.10000
    731.41,  2791.30000,   884.10000
    731.87,  2766.80000,   883.10000
    732.33,  2750.80000,   875.30000
    732.79,  2780.90000,   873.50000
    733.25,  2784.30000,   869.10000
    733.71,  2797.80000,   871.30000
    734.17,  2809.80000,   879.40000
    734.63,  2786.20000,   880.60000
    735.09,  2760.40000,   883.80000
    735.55,  2761.30000,   879.40000
    736.01,  2748.40000,   878.30000
    736.47,  2764.60000,   868.80000
    736.94,  2775.10000,   870.00000
    737.40,  2789.20000,   866.50000
    737.86,  2790.10000,   863.80000
    738.32,  2796.30000,   869.00000
    738.78,  2803.10000,   870.40000
    739.24,  2793.30000,   868.40000
    739.70,  2786.70000,   865.70000
    740.16,  2804.00000,   866.10000
    740.62,  2818.40000,   853.90000
    741.08,  2837.60000,   861.50000
    741.54,  2835.40000,   860.00000
    742.00,  2813.00000,   864.40000
    742.46,  2776.70000,   866.60000
    742.92,  2741.70000,   870.70000
    743.38,  2740.80000,   869.40000
    743.84,  2747.10000,   865.30000
    744.30,  2772.20000,   853.50000
    744.76,  2792.80000,   848.60000
    745.22,  2791.00000,   853.10000
    745.68,  2766.50000,   858.60000
    746.14,  2759.20000,   857.50000
    746.60,  2762.80000,   855.60000
    747.06,  2775.80000,   853.10000
    747.52,  2757.70000,   860.10000
    747.98,  2766.80000,   872.50000
    748.44,  2766.40000,   874.70000
    748.90,  2768.40000,   868.60000
    749.36,  2777.80000,   867.40000
    749.82,  2794.30000,   863.60000
    750.28,  2799.60000,   865.40000
    750.74,  2820.20000,   867.50000
    751.20,  2819.10000,   861.10000
    751.66,  2801.20000,   857.90000
    752.12,  2784.40000,   850.30000
    752.58,  2790.50000,   847.70000
    753.04,  2806.00000,   849.70000
    753.50,  2829.20000,   850.00000
    753.96,  2810.60000,   847.60000
    754.42,  2774.80000,   854.50000
    754.88,  2759.80000,   854.70000
    755.34,  2757.30000,   870.40000
    755.80,  2782.20000,   872.30000
    756.26,  2799.10000,   869.40000
    756.72,  2799.40000,   863.20000
    757.18,  2796.80000,   855.30000
    757.64,  2793.20000,   850.90000
    758.10,  2761.30000,   859.50000
    758.56,  2743.30000,   849.50000
    759.02,  2744.70000,   849.70000
    759.48,  2749.30000,   845.10000
    759.94,  2771.00000,   845.10000
    760.40,  2779.40000,   854.20000
    760.86,  2771.40000,   865.60000
    761.32,  2776.10000,   858.90000
    761.78,  2802.90000,   856.50000
    762.24,  2785.20000,   843.80000
    762.70,  2790.40000,   844.00000
    763.15,  2779.60000,   841.60000
    763.61,  2783.80000,   847.90000
    764.07,  2795.20000,   854.20000
    764.53,  2793.10000,   860.80000
    764.99,  2798.50000,   852.80000
    765.45,  2818.30000,   848.00000
    765.91,  2807.10000,   843.20000
    766.37,  2792.30000,   840.90000
    766.83,  2765.30000,   835.90000
    767.29,  2757.30000,   840.50000
    767.75,  2771.90000,   837.20000
    768.21,  2798.00000,   840.70000
    768.66,  2808.70000,   851.10000
    769.12,  2808.20000,   865.50000
    769.58,  2778.30000,   865.60000
    770.04,  2759.60000,   863.20000
    770.50,  2734.10000,   855.30000
    770.96,  2721.90000,   857.50000
    771.42,  2747.60000,   859.20000
    771.88,  2766.20000,   865.30000
    772.34,  2774.90000,   865.20000
    772.80,  2775.30000,   852.80000
    773.25,  2759.20000,   839.40000
    773.71,  2752.30000,   839.40000
    774.17,  2732.60000,   853.50000
    774.63,  2751.40000,   855.40000
    775.09,  2762.20000,   862.40000
    775.55,  2752.90000,   863.80000
    776.01,  2724.30000,   868.20000
    776.47,  2728.10000,   861.90000
    776.92,  2706.70000,   867.20000
    777.38,  2749.40000,   852.20000
    777.84,  2763.30000,   847.00000
    778.30,  2760.80000,   839.60000
    778.76,  2746.50000,   846.20000
    779.22,  2759.70000,   844.00000
    779.68,  2759.90000,   849.90000
    780.13,  2769.50000,   845.90000
    780.59,  2751.80000,   848.00000
    781.05,  2732.90000,   844.40000
    781.51,  2742.40000,   849.70000
    781.97,  2754.90000,   849.80000
    782.43,  2762.00000,   865.20000
    782.88,  2777.90000,   860.50000
    783.34,  2770.10000,   862.30000
    783.80,  2774.60000,   851.80000
    784.26,  2798.10000,   844.60000
    784.72,  2785.80000,   833.00000
    785.18,  2765.50000,   838.10000
    785.63,  2753.10000,   836.00000
    786.09,  2766.90000,   850.70000
    786.55,  2797.90000,   860.10000
    787.01,  2817.40000,   859.10000
    787.47,  2797.50000,   850.60000
    787.92,  2766.80000,   845.60000
    788.38,  2742.30000,   844.10000
    788.84,  2738.20000,   845.80000
    789.30,  2746.70000,   858.40000
    789.76,  2755.50000,   862.20000
    790.21,  2755.40000,   859.80000
    790.67,  2742.70000,   863.70000
    791.13,  2744.50000,   860.30000
    791.59,  2726.00000,   856.40000
    792.05,  2727.20000,   851.90000
    792.50,  2740.50000,   855.10000
    792.96,  2758.10000,   858.20000
    793.42,  2733.40000,   858.20000
    793.88,  2746.10000,   851.40000
    794.33,  2719.80000,   856.10000
    794.79,  2726.60000,   851.20000
    795.25,  2736.70000,   853.40000
    795.71,  2756.70000,   845.60000
    796.17,  2758.90000,   834.70000
    796.62,  2768.30000,   831.70000
    797.08,  2734.00000,   841.80000
    797.54,  2731.70000,   849.30000
    798.00,  2717.30000,   858.30000
    798.45,  2724.70000,   857.00000
    798.91,  2733.60000,   855.90000
    799.37,  2748.50000,   851.20000
    799.83,  2746.80000,   844.90000
    800.28,  2739.30000,   835.20000
    800.74,  2729.90000,   833.70000
    801.20,  2745.40000,   836.20000
    801.66,  2733.10000,   835.40000
    802.11,  2746.30000,   831.70000
    802.57,  2761.50000,   830.00000
    803.03,  2732.80000,   838.30000
    803.48,  2716.30000,   837.70000
    803.94,  2761.60000,   847.00000
    804.40,  2782.20000,   844.10000
    804.86,  2805.80000,   842.00000
    805.31,  2793.50000,   838.70000
    805.77,  2747.40000,   835.90000
    806.23,  2698.70000,   825.20000
    806.69,  2721.10000,   833.10000
    807.14,  2740.40000,   824.80000
    807.60,  2767.50000,   813.20000
    808.06,  2768.80000,   814.10000
    808.51,  2763.60000,   813.20000
    808.97,  2728.90000,   815.80000
    809.43,  2725.80000,   826.70000
    809.88,  2729.10000,   824.70000
    810.34,  2721.70000,   818.80000
    810.80,  2740.50000,   825.50000
    811.26,  2751.90000,   822.60000
    811.71,  2738.10000,   820.80000
    812.17,  2756.80000,   822.90000
    812.63,  2755.60000,   815.90000
    813.08,  2726.10000,   812.40000
    813.54,  2728.50000,   815.80000
    814.00,  2730.00000,   823.30000
    814.45,  2734.50000,   817.70000
    814.91,  2761.00000,   811.50000
    815.37,  2750.10000,   808.10000
    815.82,  2732.10000,   805.90000
    816.28,  2712.80000,   812.10000
    816.74,  2712.00000,   821.20000
    817.19,  2693.90000,   808.80000
    817.65,  2713.90000,   804.90000
    818.11,  2735.00000,   805.80000
    818.56,  2743.70000,   803.40000
    819.02,  2730.60000,   800.60000
    819.48,  2739.40000,   795.40000
    819.93,  2696.70000,   789.30000
    820.39,  2716.50000,   792.10000
    820.84,  2750.60000,   793.70000
    821.30,  2766.60000,   804.60000
    821.76,  2770.20000,   809.10000
    822.21,  2777.80000,   813.70000
    822.67,  2746.70000,   812.30000
    823.13,  2709.00000,   805.90000
    823.58,  2741.50000,   801.30000
    824.04,  2760.50000,   807.10000
    824.49,  2762.90000,   805.90000
    824.95,  2776.90000,   804.90000
    825.41,  2778.30000,   803.40000
    825.86,  2753.10000,   792.80000
    826.32,  2784.20000,   783.40000
    826.78,  2764.00000,   783.60000
    827.23,  2740.20000,   774.50000
    827.69,  2726.90000,   770.70000
    828.14,  2731.90000,   773.40000
    828.60,  2751.30000,   768.90000
    829.06,  2764.60000,   776.90000
    829.51,  2748.30000,   784.30000
    829.97,  2749.50000,   774.00000
    830.42,  2745.80000,   772.60000
    830.88,  2738.20000,   758.00000
    831.34,  2741.70000,   754.60000
    831.79,  2767.50000,   753.90000
    832.25,  2768.40000,   746.00000
    832.70,  2764.20000,   751.60000
    833.16,  2769.30000,   751.40000
    833.61,  2757.90000,   747.90000
    834.07,  2748.10000,   766.80000
    834.53,  2744.00000,   762.30000
    834.98,  2726.10000,   761.00000
    835.44,  2707.40000,   773.50000
    835.89,  2719.40000,   765.80000
    836.35,  2736.60000,   762.70000
    836.80,  2763.30000,   761.50000
    837.26,  2747.40000,   752.50000
    837.71,  2724.00000,   753.40000
    838.17,  2715.50000,   757.60000
    838.63,  2706.70000,   770.70000
    839.08,  2702.80000,   776.30000
    839.54,  2717.90000,   783.70000
    839.99,  2709.60000,   782.50000
    840.45,  2731.10000,   760.80000
    840.90,  2757.30000,   746.00000
    841.36,  2771.90000,   751.40000
    841.81,  2766.10000,   755.90000
    842.27,  2754.40000,   768.40000
    842.72,  2731.00000,   766.70000
    843.18,  2736.10000,   744.40000
    843.63,  2717.60000,   728.90000
    844.09,  2720.20000,   726.50000
    844.55,  2712.00000,   728.40000
    845.00,  2701.70000,   734.90000
    845.46,  2703.60000,   744.30000
    845.91,  2705.90000,   755.60000
    846.37,  2723.90000,   756.30000
    846.82,  2750.70000,   760.40000
    847.28,  2763.60000,   749.40000
    847.73,  2714.10000,   747.10000
    848.19,  2740.50000,   748.70000
    848.64,  2746.50000,   756.60000
    849.10,  2779.60000,   744.20000
    849.55,  2786.00000,   739.20000
    850.01,  2778.50000,   720.50000
    850.46,  2719.20000,   721.90000
    850.92,  2741.50000,   727.50000
    851.37,  2741.30000,   737.50000
    851.83,  2745.30000,   732.10000
    852.28,  2745.80000,   738.00000
    852.73,  2725.70000,   740.30000
    853.19,  2696.70000,   740.50000
    853.64,  2700.80000,   742.30000
    854.10,  2704.50000,   733.40000
    854.55,  2713.90000,   726.20000
    855.01,  2729.80000,   720.30000
    855.46,  2709.90000,   726.00000
    855.92,  2702.60000,   717.40000
    856.37,  2697.10000,   723.20000
    856.83,  2687.40000,   720.00000
    857.28,  2708.10000,   723.00000
    857.74,  2710.20000,   724.60000
    858.19,  2714.60000,   727.90000
    858.64,  2736.50000,   725.10000
    859.10,  2727.90000,   726.80000
    859.55,  2701.30000,   727.40000
    860.01,  2757.20000,   728.00000
    860.46,  2774.90000,   732.80000
    860.92,  2773.40000,   731.60000
    861.37,  2764.20000,   733.20000
    861.83,  2754.70000,   733.60000
    862.28,  2726.80000,   735.00000
    862.73,  2752.90000,   731.70000
    863.19,  2745.50000,   734.60000
    863.64,  2723.20000,   736.60000
    864.10,  2713.20000,   731.30000
    864.55,  2725.90000,   733.80000
    865.01,  2720.00000,   729.80000
    865.46,  2735.60000,   729.30000
    865.91,  2718.80000,   738.60000
    866.37,  2710.10000,   743.90000
    866.82,  2714.00000,   732.90000
    867.28,  2712.90000,   727.00000
    867.73,  2704.10000,   717.70000
    868.18,  2739.10000,   712.30000
    868.64,  2739.90000,   717.20000
    869.09,  2761.70000,   724.10000
    869.55,  2772.50000,   725.50000
    870.00,  2759.90000,   721.10000
    870.45,  2743.80000,   722.70000
    870.91,  2720.50000,   716.60000
    871.36,  2692.30000,   725.40000
    871.81,  2710.10000,   727.50000
    872.27,  2734.30000,   738.00000
    872.72,  2741.40000,   727.60000
    873.18,  2743.90000,   729.50000
    873.63,  2722.00000,   724.10000
    874.08,  2713.40000,   727.00000
    874.54,  2722.90000,   722.10000
    874.99,  2719.90000,   730.30000
    875.44,  2699.20000,   724.90000
    875.90,  2686.30000,   730.60000
    876.35,  2693.10000,   729.90000
    876.81,  2731.40000,   725.10000
    877.26,  2758.70000,   722.20000
    877.71,  2743.00000,   722.90000
    878.17,  2710.80000,   723.90000
    878.62,  2724.90000,   730.80000
    879.07,  2743.40000,   735.80000
    879.53,  2769.40000,   725.60000
    879.98,  2765.50000,   721.80000
    880.43,  2749.80000,   723.80000
    880.89,  2735.20000,   728.10000
    881.34,  2737.10000,   735.80000
    881.79,  2744.10000,   744.70000
    882.25,  2734.50000,   738.40000
    882.70,  2713.00000,   732.60000
    883.15,  2701.70000,   736.50000
    883.61,  2712.30000,   739.30000
    884.06,  2700.30000,   736.00000
    884.51,  2720.90000,   732.60000
    884.97,  2711.30000,   728.80000
    885.42,  2725.30000,   719.80000
    885.87,  2720.50000,   730.50000
    886.32,  2730.50000,   731.80000
    886.78,  2707.60000,   735.50000
    887.23,  2720.00000,   736.20000
    887.68,  2714.10000,   739.80000
    888.14,  2719.10000,   743.10000
    888.59,  2701.60000,   744.20000
    889.04,  2680.20000,   738.00000
    889.50,  2649.60000,   739.50000
    889.95,  2670.00000,   741.60000
    890.40,  2698.80000,   750.20000
    890.85,  2718.80000,   752.80000
    891.31,  2710.80000,   754.50000
    891.76,  2711.40000,   751.90000
    892.21,  2693.50000,   750.20000
    892.67,  2705.50000,   746.50000
    893.12,  2700.00000,   748.60000
    893.57,  2707.60000,   752.80000
    894.02,  2713.40000,   761.90000
    894.48,  2740.30000,   751.30000
    894.93,  2738.70000,   757.30000
    895.38,  2742.30000,   749.70000
    895.83,  2714.90000,   753.20000
    896.29,  2711.70000,   758.40000
    896.74,  2707.30000,   762.60000
    897.19,  2724.90000,   756.20000
    897.64,  2735.20000,   766.00000
    898.10,  2740.30000,   763.50000
    898.55,  2721.40000,   760.30000
    899.00,  2712.70000,   756.20000
    899.45,  2675.90000,   754.60000
    899.91,  2665.60000,   752.80000
    900.36,  2652.00000,   757.80000
    900.81,  2691.30000,   753.20000
    901.26,  2710.50000,   748.30000
    901.72,  2735.20000,   757.50000
    902.17,  2719.40000,   769.90000
    902.62,  2724.10000,   777.70000
    903.07,  2682.30000,   781.60000
    903.52,  2693.90000,   775.10000
    903.98,  2688.40000,   775.90000
    904.43,  2704.30000,   772.90000
    904.88,  2695.20000,   780.50000
    905.33,  2711.80000,   776.10000
    905.79,  2693.80000,   777.50000
    906.24,  2701.10000,   779.10000
    906.69,  2711.30000,   785.30000
    907.14,  2715.20000,   776.70000
    907.59,  2693.20000,   771.10000
    908.05,  2683.80000,   762.60000
    908.50,  2667.90000,   766.00000
    908.95,  2677.70000,   775.10000
    909.40,  2690.00000,   775.50000
    909.85,  2678.00000,   781.80000
    910.31,  2680.80000,   777.70000
    910.76,  2667.40000,   782.50000
    911.21,  2653.20000,   785.90000
    911.66,  2654.50000,   798.10000
    912.11,  2657.90000,   791.20000
    912.56,  2681.00000,   813.00000
    913.02,  2705.90000,   818.80000
    913.47,  2701.60000,   826.90000
    913.92,  2696.00000,   830.10000
    914.37,  2678.70000,   842.10000
    914.82,  2678.70000,   845.20000
    915.27,  2695.10000,   860.40000
    915.73,  2708.10000,   872.70000
    916.18,  2699.00000,   870.50000
    916.63,  2685.80000,   883.70000
    917.08,  2645.90000,   902.00000
    917.53,  2687.20000,   916.00000
    917.98,  2580.80000,   924.90000
    918.44,  2925.60000,   942.80000
    918.89,  3103.40000,   958.70000
    919.34,  3150.00000,   984.90000
    919.79,  3051.30000,  1010.40000
    920.24,  2898.50000,  1020.70000
    920.69,  2587.50000,  1026.00000
    921.14,  2726.00000,  1049.60000
    921.59,  2708.20000,  1093.30000
    922.05,  2698.90000,  1141.20000
    922.50,  2689.20000,  1207.30000
    922.95,  2707.70000,  1268.80000
    923.40,  2729.50000,  1338.60000
    923.85,  2738.90000,  1441.50000
    924.30,  2744.00000,  1559.90000
    924.75,  2729.40000,  1703.20000
    925.20,  2706.90000,  1881.80000
    925.66,  2691.90000,  2072.80000
    926.11,  2688.10000,  2289.00000
    926.56,  2687.70000,  2525.80000
    927.01,  2709.40000,  2776.80000
    927.46,  2703.20000,  3066.10000
    927.91,  2670.20000,  3403.50000
    928.36,  2653.00000,  3751.50000
    928.81,  2665.70000,  4119.60000
    929.26,  2683.30000,  4463.70000
    929.71,  2719.00000,  4781.80000
    930.16,  2740.50000,  5071.80000
    930.62,  2702.80000,  5345.50000
    931.07,  2691.00000,  5573.60000
    931.52,  2687.90000,  5766.70000
    931.97,  2698.20000,  5931.70000
    932.42,  2710.80000,  6116.60000
    932.87,  2725.10000,  6267.90000
    933.32,  2702.40000,  6405.10000
    933.77,  2724.20000,  6487.60000
    934.22,  2716.70000,  6540.80000
    934.67,  2730.30000,  6573.30000
    935.12,  2725.50000,  6647.80000
    935.57,  2699.60000,  6699.30000
    936.02,  2665.70000,  6742.00000
    936.47,  2685.90000,  6712.70000
    936.93,  2665.70000,  6673.00000
    937.38,  2669.00000,  6681.40000
    937.83,  2689.30000,  6775.20000
    938.28,  2678.70000,  6969.00000
    938.73,  2669.90000,  7239.70000
    939.18,  2686.60000,  7523.70000
    939.63,  2691.40000,  7756.90000
    940.08,  2707.70000,  7927.80000
    940.53,  2732.00000,  8052.10000
    940.98,  2723.40000,  8171.60000
    941.43,  2692.70000,  8277.90000
    941.88,  2676.20000,  8412.60000
    942.33,  2681.50000,  8520.80000
    942.78,  2681.10000,  8595.80000
    943.23,  2701.00000,  8638.90000
    943.68,  2708.10000,  8635.90000
    944.13,  2717.00000,  8568.30000
    944.58,  2731.30000,  8499.70000
    945.03,  2733.60000,  8530.50000
    945.48,  2700.60000,  8621.10000
    945.93,  2695.20000,  8701.90000
    946.38,  2687.70000,  8762.70000
    946.83,  2713.00000,  8727.80000
    947.28,  2722.80000,  8720.20000
    947.73,  2718.90000,  8760.70000
    948.18,  2700.10000,  8765.30000
    948.63,  2689.40000,  8752.50000
    949.08,  2680.70000,  8771.70000
    949.53,  2675.00000,  8703.10000
    949.98,  2655.90000,  8658.20000
    950.43,  2664.30000,  8576.30000
    950.88,  2676.80000,  8425.00000
    951.33,  2686.80000,  8267.10000
    951.78,  2716.80000,  8178.10000
    952.23,  2718.40000,  8087.30000
    952.68,  2698.80000,  8038.80000
    953.13,  2703.00000,  8004.00000
    953.58,  2708.70000,  7968.60000
    954.03,  2697.10000,  7948.50000
    954.48,  2691.10000,  7924.70000
    954.93,  2672.70000,  7866.70000
    955.38,  2655.90000,  7752.80000
    955.83,  2658.10000,  7594.80000
    956.28,  2663.90000,  7389.50000
    956.73,  2681.30000,  7163.50000
    957.18,  2693.40000,  6928.80000
    957.62,  2690.70000,  6710.20000
    958.07,  2704.20000,  6511.00000
    958.52,  2694.60000,  6398.50000
    958.97,  2679.50000,  6279.90000
    959.42,  2682.80000,  6143.10000
    959.87,  2679.60000,  5990.30000
    960.32,  2683.40000,  5793.40000
    960.77,  2698.90000,  5602.40000
    961.22,  2732.10000,  5436.00000
    961.67,  2746.90000,  5260.70000
    962.12,  2726.40000,  5095.30000
    962.57,  2701.40000,  4960.00000
    963.02,  2701.00000,  4843.10000
    963.47,  2685.70000,  4751.70000
    963.92,  2705.90000,  4667.70000
    964.36,  2709.90000,  4594.80000
    964.81,  2700.90000,  4515.30000
    965.26,  2701.70000,  4473.80000
    965.71,  2703.50000,  4433.40000
    966.16,  2696.90000,  4363.00000
    966.61,  2681.90000,  4261.40000
    967.06,  2667.20000,  4145.50000
    967.51,  2688.50000,  3985.40000
    967.96,  2701.50000,  3853.60000
    968.41,  2709.30000,  3714.70000
    968.85,  2719.10000,  3569.40000
    969.30,  2709.70000,  3414.00000
    969.75,  2710.00000,  3269.90000
    970.20,  2711.80000,  3124.80000
    970.65,  2714.40000,  2993.20000
    971.10,  2704.50000,  2889.10000
    971.55,  2708.40000,  2795.70000
    972.00,  2689.40000,  2709.80000
    972.44,  2669.10000,  2640.70000
    972.89,  2683.10000,  2570.60000
    973.34,  2703.40000,  2488.00000
    973.79,  2713.00000,  2427.50000
    974.24,  2732.80000,  2372.90000
    974.69,  2704.70000,  2337.20000
    975.14,  2664.40000,  2336.40000
    975.59,  2666.50000,  2344.70000
    976.03,  2655.00000,  2363.90000
    976.48,  2651.80000,  2376.80000
    976.93,  2657.20000,  2368.90000
    977.38,  2652.60000,  2360.30000
    977.83,  2644.80000,  2351.40000
    978.28,  2664.90000,  2340.50000
    978.72,  2681.70000,  2322.70000
    979.17,  2697.90000,  2296.40000
    979.62,  2709.60000,  2271.50000
    980.07,  2713.60000,  2258.30000
    980.52,  2698.40000,  2270.10000
    980.97,  2682.40000,  2305.00000
    981.41,  2636.70000,  2336.70000
    981.86,  2612.30000,  2354.80000
    982.31,  2628.50000,  2331.00000
    982.76,  2646.40000,  2268.20000
    983.21,  2683.30000,  2186.00000
    983.66,  2697.00000,  2096.50000
    984.10,  2670.30000,  2010.50000
    984.55,  2647.90000,  1935.30000
    985.00,  2632.90000,  1867.40000
    985.45,  2611.30000,  1803.90000
    985.90,  2625.20000,  1759.50000
    986.34,  2642.10000,  1725.70000
    986.79,  2643.00000,  1685.40000
    987.24,  2648.30000,  1649.20000
    987.69,  2631.50000,  1608.20000
    988.14,  2629.50000,  1554.30000
    988.58,  2644.20000,  1499.80000
    989.03,  2658.70000,  1441.30000
    989.48,  2661.30000,  1383.50000
    989.93,  2663.30000,  1343.10000
    990.38,  2639.40000,  1314.90000
    990.82,  2644.90000,  1296.60000
    991.27,  2660.70000,  1272.00000
    991.72,  2684.00000,  1254.10000
    992.17,  2669.70000,  1242.50000
    992.61,  2677.30000,  1226.70000
    993.06,  2655.60000,  1207.60000
    993.51,  2678.30000,  1192.00000
    993.96,  2679.80000,  1173.50000
    994.41,  2669.10000,  1156.00000
    994.85,  2648.00000,  1137.50000
    995.30,  2661.00000,  1112.00000
    995.75,  2662.40000,  1090.10000
    996.20,  2702.30000,  1076.10000
    996.64,  2687.90000,  1068.40000
    997.09,  2654.80000,  1049.60000
    997.54,  2644.90000,  1042.70000
    997.99,  2628.10000,  1033.60000
    998.43,  2625.90000,  1022.90000
    998.88,  2627.50000,  1018.90000
    999.33,  2631.10000,  1006.20000
    999.77,  2658.90000,   989.40000
   1000.22,  2684.40000,   988.10000
   1000.67,  2692.60000,   992.70000
   1001.12,  2694.70000,   986.00000
   1001.56,  2660.80000,   992.70000
   1002.01,  2642.70000,   983.90000
   1002.46,  2654.90000,   977.80000
   1002.91,  2637.60000,   971.70000
   1003.35,  2651.80000,   978.00000
   1003.80,  2645.30000,   973.40000
   1004.25,  2648.50000,   974.50000
   1004.69,  2651.30000,   968.60000
   1005.14,  2635.30000,   970.70000
   1005.59,  2629.70000,   973.30000
   1006.04,  2666.40000,   967.60000
   1006.48,  2682.80000,   963.90000
   1006.93,  2711.40000,   958.50000
   1007.38,  2702.00000,   959.60000
   1007.82,  2654.10000,   957.40000
   1008.27,  2627.70000,   964.80000
   1008.72,  2623.60000,   958.60000
   1009.16,  2628.90000,   956.20000
   1009.61,  2642.70000,   951.10000
   1010.06,  2643.10000,   957.30000
   1010.50,  2667.10000,   949.30000
   1010.95,  2688.70000,   951.10000
   1011.40,  2700.30000,   946.90000
   1011.85,  2678.70000,   944.20000
   1012.29,  2668.10000,   943.40000
   1012.74,  2632.40000,   947.60000
   1013.19,  2622.50000,   956.20000
   1013.63,  2660.10000,   960.00000
   1014.08,  2691.70000,   948.90000
   1014.53,  2682.30000,   946.50000
   1014.97,  2676.00000,   942.60000
   1015.42,  2650.30000,   947.40000
   1015.86,  2617.00000,   952.10000
   1016.31,  2639.40000,   954.90000
   1016.76,  2671.60000,   935.30000
   1017.20,  2658.40000,   934.70000
   1017.65,  2633.60000,   935.30000
   1018.10,  2632.20000,   942.50000
   1018.54,  2617.60000,   944.70000
   1018.99,  2640.10000,   954.60000
   1019.44,  2653.70000,   943.50000
   1019.88,  2647.30000,   947.80000
   1020.33,  2632.10000,   959.00000
   1020.78,  2642.60000,   954.70000
   1021.22,  2653.00000,   959.00000
   1021.67,  2656.20000,   961.60000
   1022.11,  2650.40000,   950.30000
   1022.56,  2647.60000,   945.60000
   1023.01,  2630.30000,   955.90000
   1023.45,  2618.00000,   949.40000
   1023.90,  2625.50000,   960.50000
   1024.34,  2609.50000,   970.90000
   1024.79,  2618.10000,   975.10000
   1025.24,  2634.00000,   964.70000
   1025.68,  2626.20000,   963.80000
   1026.13,  2627.30000,   954.00000
   1026.58,  2633.60000,   960.10000
   1027.02,  2641.40000,   972.50000
   1027.47,  2652.30000,   970.90000
   1027.91,  2657.80000,   959.30000
   1028.36,  2638.70000,   948.40000
   1028.80,  2629.00000,   945.70000
   1029.25,  2601.30000,   957.80000
   1029.70,  2605.80000,   967.60000
   1030.14,  2603.60000,   963.00000
   1030.59,  2606.20000,   971.90000
   1031.03,  2611.80000,   966.60000
   1031.48,  2622.20000,   970.30000
   1031.93,  2643.40000,   977.20000
   1032.37,  2678.20000,   976.60000
   1032.82,  2679.40000,   972.80000
   1033.26,  2682.30000,   977.60000
   1033.71,  2656.80000,   982.20000
   1034.15,  2643.10000,   981.60000
   1034.60,  2641.00000,   975.00000
   1035.05,  2654.80000,   976.00000
   1035.49,  2641.60000,   979.90000
   1035.94,  2636.40000,   990.30000
   1036.38,  2600.60000,  1004.10000
   1036.83,  2585.70000,  1002.10000
   1037.27,  2573.70000,   999.50000
   1037.72,  2579.00000,   990.90000
   1038.16,  2683.90000,   981.10000
   1038.61,  2753.10000,   993.10000
   1039.05,  2763.70000,   998.60000
   1039.50,  2749.50000,  1006.90000
   1039.95,  2688.50000,  1018.40000
   1040.39,  2619.80000,  1016.30000
   1040.84,  2628.50000,  1011.10000
   1041.28,  2632.20000,  1013.40000
   1041.73,  2632.50000,  1009.20000
   1042.17,  2642.00000,  1008.50000
   1042.62,  2641.70000,  1004.20000
   1043.06,  2646.90000,  1016.50000
   1043.51,  2620.60000,  1020.30000
   1043.95,  2630.30000,  1018.80000
   1044.40,  2625.10000,  1018.70000
   1044.84,  2616.10000,  1016.60000
   1045.29,  2611.40000,  1018.20000
   1045.73,  2615.80000,  1034.20000
   1046.18,  2597.90000,  1038.40000
   1046.62,  2593.80000,  1040.30000
   1047.07,  2587.50000,  1036.50000
   1047.51,  2577.60000,  1032.10000
   1047.96,  2617.50000,  1033.70000
   1048.40,  2658.90000,  1043.20000
   1048.85,  2674.20000,  1042.80000
   1049.29,  2658.90000,  1048.50000
   1049.74,  2614.10000,  1045.60000
   1050.18,  2581.40000,  1050.00000
   1050.63,  2587.70000,  1052.70000
   1051.07,  2594.60000,  1070.30000
   1051.52,  2613.50000,  1066.90000
   1051.96,  2601.80000,  1072.10000
   1052.41,  2576.10000,  1075.50000
   1052.85,  2578.30000,  1077.10000
   1053.30,  2572.20000,  1077.80000
   1053.74,  2578.50000,  1079.30000
   1054.18,  2593.40000,  1067.30000
   1054.63,  2583.70000,  1064.00000
   1055.07,  2568.50000,  1066.50000
   1055.52,  2566.00000,  1068.50000
   1055.96,  2553.00000,  1080.80000
   1056.41,  2545.70000,  1090.30000
   1056.85,  2542.60000,  1095.10000
   1057.30,  2544.60000,  1101.80000
   1057.74,  2545.80000,  1095.70000
   1058.18,  2548.20000,  1092.40000
   1058.63,  2526.30000,  1092.40000
   1059.07,  2521.00000,  1097.40000
   1059.52,  2528.00000,  1106.80000
   1059.96,  2530.70000,  1119.30000
   1060.41,  2533.60000,  1116.60000
   1060.85,  2541.10000,  1117.10000
   1061.30,  2529.90000,  1122.90000
   1061.74,  2517.90000,  1132.10000
   1062.18,  2507.90000,  1147.80000
   1062.63,  2484.50000,  1156.20000
   1063.07,  2485.40000,  1150.60000
   1063.52,  2492.10000,  1140.40000
   1063.96,  2516.40000,  1136.70000
   1064.40,  2520.80000,  1135.30000
   1064.85,  2515.50000,  1143.70000
   1065.29,  2493.10000,  1149.70000
   1065.74,  2479.10000,  1152.20000
   1066.18,  2447.50000,  1151.50000
