2D Measure spectrum data V5.74

<< MEASURE 1 >>
Data count = 2048
Exposure time = 30000 msec
Average = 10
Inspected time = 2020/10/23 18:42

Wave-dcm-1,Dark spec.  ,Spectrum
    108.17,  2225.90000,   685.60000
    108.66,  2234.10000,   674.90000
    109.15,  2242.70000,   666.60000
    109.65,  2267.90000,   646.20000
    110.14,  2274.00000,   646.70000
    110.63,  2284.50000,   640.50000
    111.13,  2302.80000,   630.80000
    111.62,  2292.90000,   628.10000
    112.11,  2308.40000,   623.30000
    112.60,  2328.90000,   618.60000
    113.10,  2314.30000,   624.50000
    113.59,  2331.90000,   625.50000
    114.08,  2347.20000,   627.70000
    114.58,  2339.60000,   628.10000
    115.07,  2385.60000,   624.20000
    115.56,  2396.20000,   622.10000
    116.06,  2384.50000,   617.80000
    116.55,  2384.40000,   616.90000
    117.04,  2370.90000,   623.50000
    117.53,  2353.10000,   624.10000
    118.03,  2387.90000,   631.40000
    118.52,  2397.90000,   631.30000
    119.01,  2393.90000,   632.60000
    119.51,  2478.60000,   640.80000
    120.00,  2564.70000,   657.30000
    120.49,  2596.70000,   669.50000
    120.98,  2600.10000,   682.80000
    121.48,  2521.40000,   699.20000
    121.97,  2413.30000,   721.70000
    122.46,  2404.10000,   735.20000
    122.95,  2433.30000,   752.10000
    123.45,  2466.10000,   769.90000
    123.94,  2480.60000,   781.40000
    124.43,  2503.00000,   795.20000
    124.92,  2528.50000,   813.00000
    125.42,  2528.10000,   820.20000
    125.91,  2545.20000,   835.00000
    126.40,  2533.50000,   856.30000
    126.89,  2504.30000,   874.20000
    127.39,  2495.40000,   884.60000
    127.88,  2487.70000,   901.90000
    128.37,  2480.10000,   920.80000
    128.86,  2504.70000,   941.20000
    129.35,  2505.30000,   961.20000
    129.85,  2517.90000,   977.00000
    130.34,  2514.80000,   986.10000
    130.83,  2517.20000,  1001.80000
    131.32,  2512.40000,  1018.30000
    131.81,  2511.10000,  1032.90000
    132.31,  2510.50000,  1036.70000
    132.80,  2513.70000,  1035.70000
    133.29,  2502.20000,  1031.20000
    133.78,  2514.40000,  1038.50000
    134.27,  2531.20000,  1043.00000
    134.77,  2545.30000,  1055.20000
    135.26,  2569.90000,  1067.90000
    135.75,  2562.60000,  1082.60000
    136.24,  2566.10000,  1106.80000
    136.73,  2543.50000,  1123.00000
    137.23,  2560.20000,  1120.20000
    137.72,  2556.60000,  1126.80000
    138.21,  2560.20000,  1125.20000
    138.70,  2550.50000,  1128.70000
    139.19,  2578.10000,  1133.50000
    139.68,  2564.60000,  1128.80000
    140.18,  2572.20000,  1125.10000
    140.67,  2580.30000,  1145.20000
    141.16,  2585.50000,  1151.40000
    141.65,  2581.20000,  1163.80000
    142.14,  2588.40000,  1166.50000
    142.63,  2609.10000,  1173.40000
    143.13,  2606.00000,  1185.80000
    143.62,  2636.90000,  1200.60000
    144.11,  2627.50000,  1214.50000
    144.60,  2595.10000,  1221.20000
    145.09,  2583.50000,  1226.60000
    145.58,  2644.20000,  1237.20000
    146.07,  2662.40000,  1242.00000
    146.56,  2668.90000,  1251.40000
    147.06,  2651.40000,  1270.20000
    147.55,  2615.90000,  1277.40000
    148.04,  2574.00000,  1288.90000
    148.53,  2615.70000,  1298.40000
    149.02,  2598.70000,  1304.60000
    149.51,  2670.40000,  1320.00000
    150.00,  2723.20000,  1341.60000
    150.49,  2741.40000,  1359.20000
    150.99,  2740.50000,  1388.60000
    151.48,  2715.60000,  1419.70000
    151.97,  2635.20000,  1442.10000
    152.46,  2641.80000,  1453.20000
    152.95,  2620.20000,  1465.30000
    153.44,  2621.90000,  1465.20000
    153.93,  2639.60000,  1476.00000
    154.42,  2657.80000,  1478.80000
    154.91,  2641.00000,  1472.90000
    155.40,  2621.30000,  1479.90000
    155.89,  2603.60000,  1485.90000
    156.39,  2622.50000,  1486.60000
    156.88,  2598.20000,  1494.40000
    157.37,  2618.50000,  1494.80000
    157.86,  2627.80000,  1510.20000
    158.35,  2638.70000,  1535.40000
    158.84,  2655.40000,  1565.30000
    159.33,  2701.60000,  1584.00000
    159.82,  2710.60000,  1586.90000
    160.31,  2723.10000,  1596.00000
    160.80,  2754.20000,  1605.50000
    161.29,  2710.30000,  1604.20000
    161.78,  2668.90000,  1615.50000
    162.27,  2634.80000,  1625.90000
    162.76,  2630.70000,  1633.00000
    163.25,  2642.00000,  1649.00000
    163.74,  2673.60000,  1665.70000
    164.23,  2679.30000,  1667.30000
    164.72,  2701.30000,  1673.50000
    165.21,  2677.60000,  1692.20000
    165.70,  2659.30000,  1713.90000
    166.20,  2695.80000,  1732.20000
    166.69,  2711.30000,  1753.20000
    167.18,  2727.90000,  1747.60000
    167.67,  2723.90000,  1740.80000
    168.16,  2697.50000,  1732.00000
    168.65,  2648.70000,  1717.20000
    169.14,  2678.20000,  1705.80000
    169.63,  2680.50000,  1697.20000
    170.12,  2682.60000,  1680.20000
    170.61,  2671.40000,  1668.30000
    171.10,  2723.10000,  1658.40000
    171.59,  2710.90000,  1657.40000
    172.08,  2720.70000,  1657.50000
    172.57,  2720.40000,  1650.60000
    173.06,  2724.20000,  1649.00000
    173.55,  2714.10000,  1653.10000
    174.04,  2695.60000,  1662.90000
    174.53,  2678.70000,  1675.40000
    175.02,  2674.80000,  1675.30000
    175.50,  2709.50000,  1664.40000
    175.99,  2751.70000,  1652.40000
    176.48,  2784.30000,  1643.10000
    176.97,  2756.40000,  1634.40000
    177.46,  2749.90000,  1636.30000
    177.95,  2716.10000,  1639.70000
    178.44,  2695.50000,  1638.10000
    178.93,  2677.90000,  1640.80000
    179.42,  2693.20000,  1642.90000
    179.91,  2705.60000,  1636.40000
    180.40,  2718.00000,  1649.20000
    180.89,  2729.30000,  1661.60000
    181.38,  2717.60000,  1669.30000
    181.87,  2711.80000,  1684.60000
    182.36,  2709.50000,  1691.60000
    182.85,  2681.20000,  1694.70000
    183.34,  2697.40000,  1695.70000
    183.83,  2710.40000,  1689.40000
    184.32,  2703.00000,  1688.70000
    184.81,  2739.90000,  1681.20000
    185.29,  2738.90000,  1671.30000
    185.78,  2713.70000,  1660.40000
    186.27,  2722.80000,  1648.50000
    186.76,  2722.70000,  1632.20000
    187.25,  2701.30000,  1622.20000
    187.74,  2767.30000,  1628.30000
    188.23,  2792.20000,  1643.20000
    188.72,  2811.30000,  1656.20000
    189.21,  2787.60000,  1675.70000
    189.70,  2751.20000,  1683.70000
    190.19,  2716.40000,  1687.50000
    190.67,  2705.20000,  1698.50000
    191.16,  2715.80000,  1698.20000
    191.65,  2726.70000,  1701.20000
    192.14,  2711.90000,  1706.70000
    192.63,  2730.70000,  1714.90000
    193.12,  2737.10000,  1717.70000
    193.61,  2718.80000,  1707.20000
    194.10,  2733.80000,  1693.70000
    194.59,  2727.10000,  1687.00000
    195.07,  2723.90000,  1702.60000
    195.56,  2747.10000,  1711.50000
    196.05,  2730.80000,  1707.10000
    196.54,  2724.20000,  1686.10000
    197.03,  2741.90000,  1665.30000
    197.52,  2780.30000,  1652.30000
    198.01,  2785.40000,  1665.60000
    198.49,  2785.20000,  1671.80000
    198.98,  2766.90000,  1676.30000
    199.47,  2720.90000,  1672.10000
    199.96,  2713.70000,  1655.90000
    200.45,  2724.10000,  1652.60000
    200.94,  2710.50000,  1644.00000
    201.43,  2721.80000,  1627.20000
    201.91,  2717.90000,  1617.20000
    202.40,  2707.20000,  1614.90000
    202.89,  2713.00000,  1615.50000
    203.38,  2729.10000,  1615.80000
    203.87,  2727.90000,  1620.80000
    204.36,  2722.70000,  1613.00000
    204.84,  2719.00000,  1625.90000
    205.33,  2731.40000,  1638.10000
    205.82,  2746.40000,  1648.70000
    206.31,  2744.70000,  1654.70000
    206.80,  2737.40000,  1661.40000
    207.28,  2747.20000,  1658.20000
    207.77,  2752.70000,  1674.90000
    208.26,  2766.30000,  1683.20000
    208.75,  2767.90000,  1690.10000
    209.24,  2749.90000,  1707.30000
    209.72,  2765.70000,  1712.10000
    210.21,  2780.70000,  1720.40000
    210.70,  2757.90000,  1738.10000
    211.19,  2775.10000,  1745.00000
    211.68,  2775.60000,  1759.80000
    212.16,  2778.80000,  1783.30000
    212.65,  2788.90000,  1795.60000
    213.14,  2767.70000,  1815.20000
    213.63,  2754.40000,  1831.20000
    214.12,  2738.10000,  1829.40000
    214.60,  2752.60000,  1842.70000
    215.09,  2771.90000,  1855.20000
    215.58,  2775.60000,  1869.90000
    216.07,  2766.80000,  1890.80000
    216.55,  2771.00000,  1915.30000
    217.04,  2700.00000,  1936.80000
    217.53,  2694.70000,  1958.90000
    218.02,  2699.00000,  1961.80000
    218.50,  2712.80000,  1978.10000
    218.99,  2739.70000,  1987.30000
    219.48,  2765.40000,  2012.80000
    219.97,  2731.30000,  2040.90000
    220.45,  2730.40000,  2069.50000
    220.94,  2726.20000,  2079.80000
    221.43,  2743.20000,  2088.90000
    221.92,  2771.30000,  2092.50000
    222.40,  2774.10000,  2089.20000
    222.89,  2768.40000,  2092.80000
    223.38,  2777.90000,  2094.20000
    223.86,  2799.60000,  2082.40000
    224.35,  2823.20000,  2072.10000
    224.84,  2827.60000,  2071.40000
    225.33,  2816.10000,  2056.70000
    225.81,  2774.00000,  2064.20000
    226.30,  2752.60000,  2063.40000
    226.79,  2751.10000,  2047.10000
    227.27,  2747.60000,  2019.00000
    227.76,  2751.70000,  1983.60000
    228.25,  2787.30000,  1946.80000
    228.74,  2795.50000,  1924.10000
    229.22,  2807.10000,  1916.00000
    229.71,  2797.00000,  1888.10000
    230.20,  2774.00000,  1864.60000
    230.68,  2761.40000,  1838.70000
    231.17,  2754.50000,  1808.00000
    231.66,  2734.80000,  1773.70000
    232.14,  2733.30000,  1748.50000
    232.63,  2728.90000,  1720.70000
    233.12,  2747.40000,  1699.80000
    233.60,  2769.60000,  1685.90000
    234.09,  2740.20000,  1671.90000
    234.58,  2727.40000,  1651.50000
    235.06,  2725.70000,  1637.70000
    235.55,  2723.60000,  1628.00000
    236.04,  2727.50000,  1602.30000
    236.52,  2751.50000,  1594.40000
    237.01,  2730.90000,  1588.00000
    237.50,  2761.50000,  1576.30000
    237.98,  2750.50000,  1565.70000
    238.47,  2801.50000,  1549.90000
    238.96,  2818.60000,  1528.60000
    239.44,  2808.80000,  1523.80000
    239.93,  2803.60000,  1516.60000
    240.41,  2756.10000,  1510.40000
    240.90,  2689.00000,  1517.90000
    241.39,  2710.80000,  1516.40000
    241.87,  2759.20000,  1510.90000
    242.36,  2777.60000,  1502.90000
    242.85,  2823.70000,  1489.00000
    243.33,  2808.70000,  1479.30000
    243.82,  2776.10000,  1484.40000
    244.30,  2747.80000,  1473.10000
    244.79,  2750.70000,  1472.30000
    245.28,  2744.70000,  1462.60000
    245.76,  2751.10000,  1452.00000
    246.25,  2743.10000,  1449.20000
    246.74,  2760.40000,  1452.20000
    247.22,  2788.80000,  1441.90000
    247.71,  2778.10000,  1449.30000
    248.19,  2767.90000,  1448.50000
    248.68,  2766.90000,  1446.20000
    249.16,  2736.80000,  1439.90000
    249.65,  2768.40000,  1436.20000
    250.14,  2781.20000,  1436.40000
    250.62,  2752.10000,  1441.10000
    251.11,  2722.80000,  1452.40000
    251.59,  2711.20000,  1446.90000
    252.08,  2700.80000,  1444.10000
    252.57,  2731.00000,  1430.40000
    253.05,  2732.80000,  1429.90000
    253.54,  2768.40000,  1432.60000
    254.02,  2786.50000,  1448.10000
    254.51,  2793.40000,  1445.80000
    254.99,  2786.70000,  1450.90000
    255.48,  2768.70000,  1429.70000
    255.96,  2735.20000,  1426.30000
    256.45,  2763.50000,  1422.40000
    256.94,  2772.00000,  1416.30000
    257.42,  2760.80000,  1427.90000
    257.91,  2760.80000,  1437.40000
    258.39,  2757.00000,  1448.30000
    258.88,  2737.10000,  1466.80000
    259.36,  2757.80000,  1466.90000
    259.85,  2766.80000,  1458.00000
    260.33,  2775.30000,  1462.00000
    260.82,  2796.00000,  1454.40000
    261.30,  2803.80000,  1464.40000
    261.79,  2784.10000,  1461.60000
    262.27,  2768.00000,  1461.80000
    262.76,  2749.80000,  1472.30000
    263.24,  2741.90000,  1477.60000
    263.73,  2761.60000,  1481.20000
    264.22,  2760.70000,  1477.40000
    264.70,  2833.90000,  1471.70000
    265.19,  2870.10000,  1478.00000
    265.67,  2862.60000,  1496.60000
    266.16,  2830.30000,  1508.40000
    266.64,  2794.70000,  1521.30000
    267.13,  2727.90000,  1517.60000
    267.61,  2735.40000,  1517.90000
    268.10,  2762.20000,  1516.10000
    268.58,  2765.20000,  1524.00000
    269.06,  2763.60000,  1531.30000
    269.55,  2780.50000,  1543.30000
    270.03,  2783.10000,  1548.80000
    270.52,  2780.80000,  1553.00000
    271.00,  2795.20000,  1551.50000
    271.49,  2786.70000,  1555.60000
    271.97,  2785.10000,  1556.80000
    272.46,  2797.50000,  1565.90000
    272.94,  2795.60000,  1575.70000
    273.43,  2790.50000,  1588.20000
    273.91,  2762.20000,  1598.40000
    274.40,  2742.70000,  1605.40000
    274.88,  2739.80000,  1601.80000
    275.37,  2744.30000,  1602.90000
    275.85,  2745.40000,  1606.20000
    276.33,  2749.50000,  1612.10000
    276.82,  2758.70000,  1628.60000
    277.30,  2772.00000,  1633.30000
    277.79,  2774.80000,  1628.00000
    278.27,  2778.80000,  1623.50000
    278.76,  2793.60000,  1611.80000
    279.24,  2799.30000,  1604.40000
    279.73,  2795.00000,  1618.20000
    280.21,  2786.00000,  1629.30000
    280.69,  2758.90000,  1645.70000
    281.18,  2755.30000,  1654.60000
    281.66,  2774.90000,  1651.20000
    282.15,  2817.70000,  1634.40000
    282.63,  2814.00000,  1624.80000
    283.11,  2806.70000,  1619.80000
    283.60,  2799.40000,  1621.20000
    284.08,  2809.30000,  1628.10000
    284.57,  2785.40000,  1623.90000
    285.05,  2785.10000,  1618.70000
    285.53,  2759.90000,  1619.40000
    286.02,  2736.90000,  1620.40000
    286.50,  2756.50000,  1614.10000
    286.99,  2782.00000,  1610.00000
    287.47,  2770.50000,  1584.00000
    287.95,  2759.90000,  1558.20000
    288.44,  2749.20000,  1557.40000
    288.92,  2742.60000,  1556.40000
    289.41,  2758.00000,  1554.90000
    289.89,  2787.40000,  1550.50000
    290.37,  2793.10000,  1538.80000
    290.86,  2818.10000,  1524.80000
    291.34,  2783.70000,  1524.40000
    291.82,  2761.80000,  1524.40000
    292.31,  2744.70000,  1514.90000
    292.79,  2757.40000,  1497.60000
    293.28,  2759.30000,  1477.20000
    293.76,  2778.80000,  1464.50000
    294.24,  2771.70000,  1465.60000
    294.73,  2786.40000,  1473.40000
    295.21,  2791.40000,  1476.20000
    295.69,  2796.90000,  1464.60000
    296.18,  2773.50000,  1440.10000
    296.66,  2741.60000,  1414.30000
    297.14,  2744.50000,  1395.40000
    297.63,  2759.50000,  1387.40000
    298.11,  2779.30000,  1392.10000
    298.59,  2811.20000,  1386.80000
    299.08,  2818.50000,  1377.70000
    299.56,  2813.20000,  1370.40000
    300.04,  2828.90000,  1354.40000
    300.53,  2823.50000,  1349.90000
    301.01,  2820.40000,  1347.00000
    301.49,  2808.20000,  1347.20000
    301.98,  2783.30000,  1330.10000
    302.46,  2756.10000,  1328.90000
    302.94,  2760.20000,  1317.90000
    303.42,  2759.10000,  1310.80000
    303.91,  2747.90000,  1299.50000
    304.39,  2730.90000,  1299.50000
    304.87,  2735.40000,  1287.80000
    305.36,  2752.00000,  1283.50000
    305.84,  2790.10000,  1271.10000
    306.32,  2822.80000,  1264.10000
    306.81,  2804.10000,  1253.70000
    307.29,  2771.50000,  1254.90000
    307.77,  2757.50000,  1249.80000
    308.25,  2764.80000,  1239.50000
    308.74,  2788.20000,  1222.00000
    309.22,  2790.10000,  1218.20000
    309.70,  2772.80000,  1219.10000
    310.18,  2757.90000,  1218.50000
    310.67,  2760.40000,  1215.00000
    311.15,  2776.70000,  1207.00000
    311.63,  2791.80000,  1197.70000
    312.12,  2799.90000,  1197.00000
    312.60,  2773.70000,  1200.10000
    313.08,  2747.30000,  1196.30000
    313.56,  2731.80000,  1199.50000
    314.05,  2726.60000,  1192.20000
    314.53,  2751.40000,  1177.40000
    315.01,  2815.70000,  1162.00000
    315.49,  2816.10000,  1156.30000
    315.98,  2815.70000,  1159.40000
    316.46,  2791.70000,  1168.30000
    316.94,  2747.40000,  1171.20000
    317.42,  2733.30000,  1156.90000
    317.90,  2738.60000,  1147.50000
    318.39,  2722.20000,  1135.20000
    318.87,  2772.70000,  1139.70000
    319.35,  2799.40000,  1143.00000
    319.83,  2811.10000,  1140.20000
    320.32,  2817.60000,  1139.50000
    320.80,  2818.90000,  1135.50000
    321.28,  2774.60000,  1134.80000
    321.76,  2809.40000,  1133.90000
    322.24,  2808.50000,  1132.90000
    322.73,  2825.30000,  1135.60000
    323.21,  2822.50000,  1146.00000
    323.69,  2825.30000,  1149.90000
    324.17,  2776.20000,  1156.00000
    324.65,  2753.60000,  1140.50000
    325.14,  2756.20000,  1122.00000
    325.62,  2769.50000,  1115.10000
    326.10,  2817.80000,  1116.40000
    326.58,  2837.30000,  1119.10000
    327.06,  2797.60000,  1120.50000
    327.55,  2809.80000,  1123.40000
    328.03,  2838.10000,  1119.60000
    328.51,  2843.60000,  1129.70000
    328.99,  2860.20000,  1140.10000
    329.47,  2842.10000,  1137.80000
    329.95,  2765.10000,  1133.00000
    330.44,  2762.60000,  1139.30000
    330.92,  2733.20000,  1141.10000
    331.40,  2714.80000,  1141.60000
    331.88,  2711.50000,  1137.30000
    332.36,  2731.70000,  1123.50000
    332.84,  2766.30000,  1109.40000
    333.33,  2808.70000,  1105.00000
    333.81,  2810.80000,  1109.10000
    334.29,  2815.80000,  1106.50000
    334.77,  2813.10000,  1099.20000
    335.25,  2803.00000,  1089.20000
    335.73,  2817.10000,  1084.20000
    336.21,  2810.60000,  1086.00000
    336.69,  2789.50000,  1093.80000
    337.18,  2775.30000,  1099.40000
    337.66,  2750.50000,  1103.60000
    338.14,  2734.20000,  1097.20000
    338.62,  2729.10000,  1100.70000
    339.10,  2758.80000,  1093.70000
    339.58,  2808.00000,  1080.10000
    340.06,  2824.40000,  1077.80000
    340.54,  2829.50000,  1076.20000
    341.03,  2813.40000,  1065.30000
    341.51,  2780.00000,  1073.20000
    341.99,  2773.90000,  1070.80000
    342.47,  2788.40000,  1070.20000
    342.95,  2788.10000,  1073.50000
    343.43,  2789.40000,  1076.40000
    343.91,  2787.50000,  1074.60000
    344.39,  2766.10000,  1079.60000
    344.87,  2741.00000,  1078.50000
    345.35,  2755.50000,  1073.50000
    345.84,  2765.40000,  1067.50000
    346.32,  2808.00000,  1066.00000
    346.80,  2825.90000,  1069.10000
    347.28,  2824.90000,  1072.30000
    347.76,  2798.00000,  1068.70000
    348.24,  2796.20000,  1063.30000
    348.72,  2815.50000,  1065.80000
    349.20,  2839.20000,  1067.40000
    349.68,  2823.20000,  1071.20000
    350.16,  2790.80000,  1076.10000
    350.64,  2747.80000,  1070.60000
    351.12,  2734.90000,  1071.30000
    351.60,  2791.10000,  1074.40000
    352.08,  2838.40000,  1066.90000
    352.56,  2860.30000,  1065.20000
    353.04,  2857.40000,  1059.70000
    353.53,  2840.80000,  1050.70000
    354.01,  2821.70000,  1058.50000
    354.49,  2828.20000,  1067.80000
    354.97,  2823.50000,  1062.40000
    355.45,  2813.50000,  1074.70000
    355.93,  2786.20000,  1072.60000
    356.41,  2801.40000,  1072.50000
    356.89,  2791.90000,  1064.20000
    357.37,  2801.40000,  1060.90000
    357.85,  2781.70000,  1055.50000
    358.33,  2775.30000,  1060.40000
    358.81,  2748.20000,  1070.90000
    359.29,  2758.90000,  1078.40000
    359.77,  2773.50000,  1071.30000
    360.25,  2790.90000,  1078.40000
    360.73,  2785.10000,  1084.60000
    361.21,  2784.60000,  1076.50000
    361.69,  2797.90000,  1078.40000
    362.17,  2802.80000,  1071.50000
    362.65,  2816.20000,  1060.20000
    363.13,  2813.20000,  1061.90000
    363.61,  2816.60000,  1064.90000
    364.09,  2789.40000,  1058.50000
    364.57,  2785.00000,  1066.50000
    365.05,  2783.90000,  1072.00000
    365.53,  2771.30000,  1074.80000
    366.01,  2786.10000,  1074.50000
    366.49,  2828.30000,  1075.80000
    366.97,  2795.40000,  1067.90000
    367.45,  2807.40000,  1072.40000
    367.93,  2831.60000,  1081.30000
    368.41,  2814.90000,  1090.60000
    368.89,  2813.40000,  1094.00000
    369.37,  2819.10000,  1096.10000
    369.85,  2767.80000,  1084.70000
    370.33,  2782.80000,  1088.50000
    370.80,  2800.90000,  1093.00000
    371.28,  2799.10000,  1093.20000
    371.76,  2781.30000,  1091.30000
    372.24,  2771.50000,  1084.00000
    372.72,  2774.40000,  1070.10000
    373.20,  2787.90000,  1072.00000
    373.68,  2813.30000,  1073.40000
    374.16,  2827.70000,  1082.40000
    374.64,  2802.40000,  1092.20000
    375.12,  2780.10000,  1093.60000
    375.60,  2806.00000,  1104.50000
    376.08,  2777.30000,  1110.60000
    376.56,  2778.30000,  1104.00000
    377.04,  2779.10000,  1095.80000
    377.52,  2784.20000,  1085.20000
    377.99,  2783.60000,  1080.10000
    378.47,  2804.40000,  1096.10000
    378.95,  2782.40000,  1107.80000
    379.43,  2794.70000,  1111.30000
    379.91,  2802.60000,  1105.20000
    380.39,  2848.80000,  1103.00000
    380.87,  2871.00000,  1109.40000
    381.35,  2859.90000,  1108.80000
    381.83,  2827.10000,  1112.00000
    382.31,  2787.20000,  1109.70000
    382.79,  2759.70000,  1100.00000
    383.26,  2778.90000,  1106.40000
    383.74,  2782.10000,  1116.10000
    384.22,  2780.40000,  1116.50000
    384.70,  2775.90000,  1119.50000
    385.18,  2745.00000,  1113.70000
    385.66,  2755.40000,  1107.50000
    386.14,  2771.00000,  1112.80000
    386.62,  2788.20000,  1115.50000
    387.09,  2810.50000,  1118.40000
    387.57,  2818.00000,  1118.20000
    388.05,  2812.10000,  1109.10000
    388.53,  2804.80000,  1111.00000
    389.01,  2808.40000,  1113.00000
    389.49,  2826.30000,  1114.20000
    389.97,  2823.60000,  1112.90000
    390.44,  2809.80000,  1119.20000
    390.92,  2793.90000,  1119.20000
    391.40,  2772.90000,  1122.70000
    391.88,  2770.10000,  1122.40000
    392.36,  2774.10000,  1124.70000
    392.84,  2860.00000,  1030.00000
    393.32,  2913.00000,   988.00000
    393.79,  2911.10000,   987.80000
    394.27,  2937.70000,  1015.00000
    394.75,  2882.40000,  1079.80000
    395.23,  2810.40000,  1149.90000
    395.71,  2814.60000,  1119.00000
    396.18,  2833.80000,  1095.20000
    396.66,  2857.50000,  1077.30000
    397.14,  2902.30000,  1062.30000
    397.62,  2864.80000,  1078.20000
    398.10,  2833.80000,  1108.60000
    398.58,  2793.10000,  1131.00000
    399.05,  2807.20000,  1122.50000
    399.53,  2819.70000,  1115.00000
    400.01,  2814.00000,  1106.50000
    400.49,  2789.70000,  1106.10000
    400.97,  2771.70000,  1110.10000
    401.44,  2740.10000,  1108.70000
    401.92,  2765.20000,  1107.60000
    402.40,  2768.20000,  1101.40000
    402.88,  2798.50000,  1086.90000
    403.36,  2814.20000,  1081.60000
    403.83,  2829.30000,  1077.40000
    404.31,  2794.50000,  1072.70000
    404.79,  2805.80000,  1079.70000
    405.27,  2781.00000,  1081.60000
    405.74,  2777.30000,  1083.50000
    406.22,  2800.60000,  1082.20000
    406.70,  2819.50000,  1084.40000
    407.18,  2802.20000,  1080.40000
    407.65,  2789.30000,  1075.20000
    408.13,  2752.80000,  1075.00000
    408.61,  2758.90000,  1076.70000
    409.09,  2780.60000,  1065.60000
    409.56,  2788.60000,  1070.60000
    410.04,  2801.90000,  1064.20000
    410.52,  2798.00000,  1049.80000
    411.00,  2767.80000,  1046.10000
    411.47,  2765.10000,  1044.30000
    411.95,  2755.10000,  1037.20000
    412.43,  2762.00000,  1039.60000
    412.91,  2765.70000,  1043.70000
    413.38,  2778.20000,  1049.60000
    413.86,  2787.10000,  1049.70000
    414.34,  2789.20000,  1049.80000
    414.82,  2797.50000,  1036.10000
    415.29,  2802.20000,  1022.20000
    415.77,  2810.10000,  1020.50000
    416.25,  2807.70000,  1023.60000
    416.72,  2805.30000,  1017.80000
    417.20,  2789.50000,  1026.50000
    417.68,  2752.90000,  1026.20000
    418.16,  2737.40000,  1034.10000
    418.63,  2765.70000,  1035.60000
    419.11,  2774.80000,  1033.40000
    419.59,  2791.80000,  1018.50000
    420.06,  2768.70000,  1021.10000
    420.54,  2736.20000,  1015.80000
    421.02,  2745.50000,  1024.40000
    421.50,  2770.20000,  1022.90000
    421.97,  2781.60000,  1021.50000
    422.45,  2783.30000,  1012.60000
    422.93,  2769.80000,  1010.00000
    423.40,  2763.40000,  1001.30000
    423.88,  2765.10000,  1001.00000
    424.36,  2769.90000,   996.80000
    424.83,  2778.70000,  1001.90000
    425.31,  2795.20000,  1002.20000
    425.79,  2841.10000,  1003.90000
    426.26,  2887.10000,  1001.50000
    426.74,  2865.30000,  1005.50000
    427.22,  2844.20000,  1004.60000
    427.69,  2818.60000,  1019.70000
    428.17,  2793.00000,  1015.50000
    428.65,  2777.40000,  1013.20000
    429.12,  2811.20000,  1007.40000
    429.60,  2792.10000,  1005.10000
    430.08,  2801.70000,  1000.10000
    430.55,  2811.70000,  1003.70000
    431.03,  2811.70000,   998.80000
    431.50,  2808.00000,  1006.20000
    431.98,  2804.50000,  1010.10000
    432.46,  2801.70000,  1013.30000
    432.93,  2781.90000,  1005.30000
    433.41,  2767.90000,   991.10000
    433.89,  2765.10000,   986.10000
    434.36,  2768.90000,   995.10000
    434.84,  2760.30000,  1007.30000
    435.31,  2776.20000,  1021.40000
    435.79,  2778.90000,  1011.30000
    436.27,  2771.80000,  1003.90000
    436.74,  2772.90000,  1000.00000
    437.22,  2775.90000,   989.40000
    437.70,  2768.40000,   990.70000
    438.17,  2758.00000,   998.50000
    438.65,  2763.50000,   989.30000
    439.12,  2773.20000,   988.50000
    439.60,  2777.30000,   991.80000
    440.08,  2793.30000,   985.20000
    440.55,  2780.10000,   983.90000
    441.03,  2785.70000,   991.30000
    441.50,  2788.30000,   981.40000
    441.98,  2802.50000,   979.00000
    442.45,  2789.00000,   987.10000
    442.93,  2784.90000,   998.20000
    443.41,  2762.90000,  1008.10000
    443.88,  2763.50000,  1011.10000
    444.36,  2758.60000,   999.40000
    444.83,  2772.80000,   992.30000
    445.31,  2775.00000,   998.70000
    445.78,  2755.30000,   995.30000
    446.26,  2752.50000,   996.60000
    446.74,  2746.10000,   990.60000
    447.21,  2769.00000,   983.10000
    447.69,  2794.20000,   982.70000
    448.16,  2811.30000,   990.70000
    448.64,  2789.70000,   990.40000
    449.11,  2775.70000,   991.50000
    449.59,  2776.90000,   988.10000
    450.06,  2782.20000,   986.30000
    450.54,  2777.30000,   989.30000
    451.02,  2803.20000,   986.70000
    451.49,  2803.70000,   998.60000
    451.97,  2801.60000,   995.40000
    452.44,  2798.60000,   989.40000
    452.92,  2785.10000,   984.20000
    453.39,  2767.50000,   980.30000
    453.87,  2781.30000,   973.80000
    454.34,  2784.00000,   980.30000
    454.82,  2788.50000,   986.00000
    455.29,  2799.60000,   992.00000
    455.77,  2805.10000,   990.00000
    456.24,  2776.20000,   993.80000
    456.72,  2751.10000,   997.00000
    457.19,  2746.20000,   987.40000
    457.67,  2759.60000,   977.50000
    458.14,  2792.00000,   984.20000
    458.62,  2804.90000,   980.00000
    459.09,  2795.80000,   987.90000
    459.57,  2773.40000,   996.00000
    460.04,  2776.00000,   994.60000
    460.52,  2778.00000,   989.50000
    460.99,  2772.20000,   990.60000
    461.47,  2770.30000,   986.50000
    461.94,  2748.00000,   988.00000
    462.42,  2746.10000,   984.20000
    462.89,  2761.70000,   988.60000
    463.37,  2774.10000,  1002.40000
    463.84,  2780.20000,  1011.40000
    464.32,  2788.20000,  1011.50000
    464.79,  2786.00000,  1007.40000
    465.26,  2791.90000,   993.00000
    465.74,  2780.30000,   982.50000
    466.21,  2795.00000,   985.60000
    466.69,  2801.20000,   996.20000
    467.16,  2802.20000,   995.00000
    467.64,  2790.60000,   994.90000
    468.11,  2782.50000,   984.10000
    468.59,  2780.60000,   978.20000
    469.06,  2791.40000,   983.90000
    469.54,  2811.30000,   996.60000
    470.01,  2800.40000,  1009.40000
    470.48,  2755.10000,  1012.10000
    470.96,  2777.30000,  1005.50000
    471.43,  2805.30000,  1003.90000
    471.91,  2822.20000,  1003.40000
    472.38,  2858.20000,  1000.10000
    472.86,  2836.80000,   992.10000
    473.33,  2783.70000,   978.10000
    473.80,  2782.00000,   972.20000
    474.28,  2784.30000,   974.70000
    474.75,  2792.50000,   978.00000
    475.23,  2825.20000,   985.40000
    475.70,  2836.30000,   986.60000
    476.17,  2811.40000,   991.80000
    476.65,  2796.80000,  1002.00000
    477.12,  2789.50000,  1004.10000
    477.60,  2750.80000,  1003.60000
    478.07,  2752.20000,  1008.20000
    478.54,  2775.10000,  1006.00000
    479.02,  2790.40000,   999.60000
    479.49,  2814.60000,   993.90000
    479.97,  2820.30000,   987.20000
    480.44,  2802.40000,   983.20000
    480.91,  2776.10000,   980.70000
    481.39,  2770.50000,   982.10000
    481.86,  2772.40000,   994.70000
    482.34,  2755.70000,   999.80000
    482.81,  2770.30000,  1000.50000
    483.28,  2801.80000,  1001.10000
    483.76,  2798.30000,   988.40000
    484.23,  2833.30000,   973.70000
    484.70,  2826.30000,   980.30000
    485.18,  2814.90000,   983.10000
    485.65,  2813.50000,   984.50000
    486.12,  2811.60000,   989.40000
    486.60,  2782.10000,   986.30000
    487.07,  2785.00000,   982.20000
    487.55,  2802.80000,   980.20000
    488.02,  2818.30000,   988.90000
    488.49,  2815.00000,   996.10000
    488.97,  2827.90000,   991.80000
    489.44,  2813.30000,   990.20000
    489.91,  2775.50000,   991.60000
    490.39,  2770.30000,   986.20000
    490.86,  2732.70000,   996.00000
    491.33,  2706.60000,   993.10000
    491.81,  2748.90000,   989.10000
    492.28,  2789.40000,   989.10000
    492.75,  2783.50000,   983.60000
    493.23,  2830.70000,   982.60000
    493.70,  2844.90000,   987.80000
    494.17,  2837.00000,   985.50000
    494.64,  2828.30000,   990.50000
    495.12,  2788.90000,   995.40000
    495.59,  2793.10000,   988.90000
    496.06,  2829.90000,   992.00000
    496.54,  2853.00000,   987.40000
    497.01,  2838.50000,   979.10000
    497.48,  2822.60000,   974.60000
    497.96,  2787.70000,   978.70000
    498.43,  2817.40000,   974.50000
    498.90,  2811.10000,   990.20000
    499.37,  2831.00000,   995.00000
    499.85,  2810.70000,   991.40000
    500.32,  2808.70000,   988.40000
    500.79,  2787.40000,   991.90000
    501.27,  2796.20000,   986.30000
    501.74,  2786.70000,   993.60000
    502.21,  2780.20000,   996.10000
    502.68,  2773.40000,   991.00000
    503.16,  2760.80000,   988.50000
    503.63,  2748.70000,   993.10000
    504.10,  2766.40000,   989.70000
    504.57,  2765.50000,   992.10000
    505.05,  2780.30000,   988.00000
    505.52,  2807.00000,   982.10000
    505.99,  2803.10000,   974.20000
    506.46,  2791.00000,   983.10000
    506.94,  2780.00000,   981.70000
    507.41,  2769.10000,   975.60000
    507.88,  2771.50000,   970.00000
    508.35,  2773.10000,   966.00000
    508.83,  2762.20000,   962.40000
    509.30,  2780.60000,   980.00000
    509.77,  2789.00000,   985.20000
    510.24,  2791.00000,   981.80000
    510.72,  2773.90000,   974.10000
    511.19,  2761.10000,   969.30000
    511.66,  2761.30000,   963.80000
    512.13,  2788.00000,   964.70000
    512.60,  2780.60000,   962.70000
    513.08,  2771.50000,   972.50000
    513.55,  2763.70000,   979.70000
    514.02,  2745.10000,   999.10000
    514.49,  2749.40000,   998.50000
    514.97,  2757.00000,   992.80000
    515.44,  2768.10000,   986.80000
    515.91,  2766.10000,   978.90000
    516.38,  2763.60000,   980.30000
    516.85,  2727.60000,   991.70000
    517.33,  2716.30000,   976.60000
    517.80,  2719.10000,   972.70000
    518.27,  2748.10000,   972.00000
    518.74,  2794.00000,   966.70000
    519.21,  2817.20000,   974.50000
    519.68,  2797.20000,   976.90000
    520.16,  2770.50000,   966.10000
    520.63,  2750.10000,   964.20000
    521.10,  2741.10000,   966.60000
    521.57,  2767.20000,   971.90000
    522.04,  2774.90000,   972.20000
    522.52,  2771.30000,   966.50000
    522.99,  2753.10000,   969.60000
    523.46,  2767.60000,   969.10000
    523.93,  2781.50000,   975.70000
    524.40,  2812.90000,   977.50000
    524.87,  2803.30000,   974.40000
    525.34,  2792.30000,   969.20000
    525.82,  2771.90000,   973.50000
    526.29,  2774.00000,   970.50000
    526.76,  2774.30000,   962.50000
    527.23,  2788.70000,   976.00000
    527.70,  2771.90000,   979.00000
    528.17,  2778.40000,   976.40000
    528.64,  2773.80000,   973.50000
    529.12,  2785.70000,   965.60000
    529.59,  2786.10000,   958.00000
    530.06,  2780.10000,   978.30000
    530.53,  2809.10000,   982.50000
    531.00,  2777.90000,   986.90000
    531.47,  2730.40000,   988.90000
    531.94,  2722.90000,   987.90000
    532.41,  2721.00000,   984.90000
    532.89,  2743.60000,   980.20000
    533.36,  2813.10000,   971.30000
    533.83,  2794.80000,   968.60000
    534.30,  2775.10000,   977.40000
    534.77,  2782.60000,   985.20000
    535.24,  2789.10000,   988.10000
    535.71,  2786.70000,   981.60000
    536.18,  2800.90000,   979.30000
    536.65,  2789.30000,   983.40000
    537.13,  2761.10000,   988.90000
    537.60,  2743.30000,   992.60000
    538.07,  2743.60000,   995.40000
    538.54,  2734.70000,   997.00000
    539.01,  2758.00000,  1005.80000
    539.48,  2800.70000,  1007.40000
    539.95,  2816.20000,   992.90000
    540.42,  2818.90000,   983.60000
    540.89,  2802.60000,   976.30000
    541.36,  2780.60000,   980.50000
    541.83,  2770.10000,   993.80000
    542.30,  2773.30000,   998.30000
    542.77,  2775.00000,   997.50000
    543.25,  2791.80000,  1003.70000
    543.72,  2794.40000,   996.90000
    544.19,  2792.60000,   998.20000
    544.66,  2778.80000,   995.10000
    545.13,  2766.50000,   998.70000
    545.60,  2740.80000,  1009.10000
    546.07,  2766.30000,  1010.50000
    546.54,  2775.40000,  1012.60000
    547.01,  2781.50000,  1016.40000
    547.48,  2789.40000,  1016.10000
    547.95,  2774.10000,  1022.10000
    548.42,  2748.30000,  1031.10000
    548.89,  2785.20000,  1024.00000
    549.36,  2776.10000,  1022.90000
    549.83,  2769.10000,  1020.50000
    550.30,  2820.50000,  1019.60000
    550.77,  2817.00000,  1023.00000
    551.24,  2818.50000,  1032.40000
    551.71,  2834.20000,  1036.80000
    552.18,  2801.30000,  1035.80000
    552.65,  2750.80000,  1032.50000
    553.12,  2778.70000,  1023.60000
    553.59,  2786.90000,  1016.50000
    554.06,  2792.50000,  1016.00000
    554.53,  2802.50000,  1018.80000
    555.00,  2789.40000,  1023.00000
    555.47,  2769.40000,  1027.40000
    555.94,  2764.70000,  1028.40000
    556.41,  2763.40000,  1026.60000
    556.88,  2746.60000,  1034.70000
    557.35,  2744.70000,  1032.00000
    557.82,  2744.90000,  1019.90000
    558.29,  2760.30000,  1013.20000
    558.76,  2807.50000,  1011.90000
    559.23,  2816.30000,  1022.70000
    559.70,  2815.70000,  1041.70000
    560.17,  2799.40000,  1054.80000
    560.64,  2792.20000,  1051.20000
    561.11,  2781.70000,  1046.70000
    561.58,  2813.60000,  1030.50000
    562.05,  2794.70000,  1018.00000
    562.52,  2801.50000,  1017.00000
    562.99,  2797.60000,  1021.30000
    563.46,  2802.90000,  1030.00000
    563.93,  2789.70000,  1044.70000
    564.40,  2790.60000,  1048.90000
    564.87,  2787.70000,  1052.60000
    565.34,  2808.00000,  1051.10000
    565.81,  2802.60000,  1036.20000
    566.28,  2798.70000,  1033.10000
    566.74,  2773.00000,  1039.30000
    567.21,  2759.20000,  1045.00000
    567.68,  2777.60000,  1045.30000
    568.15,  2783.90000,  1043.00000
    568.62,  2786.70000,  1024.40000
    569.09,  2779.20000,  1030.40000
    569.56,  2760.10000,  1049.50000
    570.03,  2753.40000,  1058.70000
    570.50,  2790.40000,  1067.10000
    570.97,  2798.80000,  1062.00000
    571.44,  2802.80000,  1038.40000
    571.91,  2802.50000,  1035.20000
    572.38,  2780.00000,  1044.80000
    572.84,  2757.10000,  1047.50000
    573.31,  2769.60000,  1056.80000
    573.78,  2767.00000,  1055.00000
    574.25,  2761.40000,  1053.30000
    574.72,  2782.60000,  1048.40000
    575.19,  2778.70000,  1053.40000
    575.66,  2777.00000,  1049.70000
    576.13,  2777.90000,  1048.80000
    576.60,  2782.00000,  1051.40000
    577.07,  2802.70000,  1053.90000
    577.53,  2826.20000,  1041.60000
    578.00,  2821.40000,  1042.70000
    578.47,  2807.20000,  1044.00000
    578.94,  2785.40000,  1053.00000
    579.41,  2754.90000,  1061.90000
    579.88,  2768.00000,  1073.50000
    580.35,  2777.70000,  1069.40000
    580.82,  2777.80000,  1065.00000
    581.28,  2801.00000,  1056.70000
    581.75,  2800.50000,  1052.90000
    582.22,  2792.50000,  1048.70000
    582.69,  2798.20000,  1047.40000
    583.16,  2802.70000,  1047.30000
    583.63,  2784.90000,  1047.10000
    584.10,  2816.30000,  1045.90000
    584.56,  2823.80000,  1044.30000
    585.03,  2817.60000,  1046.80000
    585.50,  2810.50000,  1044.90000
    585.97,  2781.60000,  1045.20000
    586.44,  2766.20000,  1050.30000
    586.91,  2788.60000,  1042.20000
    587.37,  2789.50000,  1033.40000
    587.84,  2778.20000,  1029.90000
    588.31,  2765.40000,  1035.40000
    588.78,  2739.00000,  1035.00000
    589.25,  2767.80000,  1039.10000
    589.72,  2768.30000,  1036.90000
    590.18,  2796.20000,  1033.40000
    590.65,  2821.50000,  1034.00000
    591.12,  2805.10000,  1032.90000
    591.59,  2801.60000,  1033.80000
    592.06,  2781.50000,  1041.10000
    592.52,  2734.40000,  1044.90000
    592.99,  2748.90000,  1053.90000
    593.46,  2743.50000,  1064.30000
    593.93,  2709.40000,  1053.70000
    594.40,  2738.50000,  1045.20000
    594.86,  2763.10000,  1041.90000
    595.33,  2782.00000,  1033.60000
    595.80,  2804.20000,  1033.40000
    596.27,  2803.30000,  1032.90000
    596.74,  2779.00000,  1035.70000
    597.20,  2771.50000,  1031.10000
    597.67,  2778.70000,  1041.40000
    598.14,  2761.70000,  1044.80000
    598.61,  2761.40000,  1031.90000
    599.07,  2767.60000,  1021.60000
    599.54,  2760.80000,  1015.90000
    600.01,  2749.30000,  1008.50000
    600.48,  2804.00000,  1013.50000
    600.95,  2823.40000,  1021.40000
    601.41,  2828.70000,  1032.20000
    601.88,  2812.30000,  1034.30000
    602.35,  2750.90000,  1044.90000
    602.82,  2698.20000,  1043.10000
    603.28,  2721.10000,  1028.30000
    603.75,  2727.30000,  1017.70000
    604.22,  2756.70000,  1011.60000
    604.69,  2782.30000,   994.90000
    605.15,  2787.50000,  1004.40000
    605.62,  2773.40000,  1011.10000
    606.09,  2763.30000,  1020.60000
    606.56,  2743.80000,  1027.60000
    607.02,  2743.50000,  1024.10000
    607.49,  2743.70000,  1012.70000
    607.96,  2771.10000,  1001.00000
    608.42,  2767.50000,   997.20000
    608.89,  2816.30000,  1005.20000
    609.36,  2826.50000,  1014.90000
    609.83,  2809.30000,  1018.00000
    610.29,  2773.20000,  1026.20000
    610.76,  2752.50000,  1019.60000
    611.23,  2743.30000,  1015.70000
    611.69,  2774.90000,  1011.80000
    612.16,  2777.60000,  1003.70000
    612.63,  2781.50000,   991.70000
    613.10,  2763.70000,   991.00000
    613.56,  2744.90000,   995.50000
    614.03,  2750.10000,  1004.40000
    614.50,  2753.40000,  1008.70000
    614.96,  2761.00000,  1006.70000
    615.43,  2773.00000,  1001.90000
    615.90,  2790.80000,   997.10000
    616.36,  2788.50000,  1000.70000
    616.83,  2776.40000,   992.00000
    617.30,  2769.80000,   979.00000
    617.76,  2744.90000,   974.00000
    618.23,  2726.30000,   980.00000
    618.70,  2721.90000,   990.70000
    619.16,  2734.30000,  1000.40000
    619.63,  2740.90000,   996.80000
    620.10,  2747.70000,   988.50000
    620.56,  2750.40000,   970.50000
    621.03,  2770.50000,   969.50000
    621.50,  2763.50000,   985.10000
    621.96,  2771.40000,   985.90000
    622.43,  2773.70000,   989.50000
    622.90,  2776.40000,   992.40000
    623.36,  2786.50000,   978.60000
    623.83,  2793.10000,   973.60000
    624.30,  2780.50000,   976.80000
    624.76,  2782.60000,   971.80000
    625.23,  2782.00000,   975.80000
    625.70,  2796.20000,   973.70000
    626.16,  2796.20000,   972.30000
    626.63,  2769.00000,   969.20000
    627.09,  2760.80000,   963.60000
    627.56,  2772.90000,   960.80000
    628.03,  2766.50000,   956.90000
    628.49,  2784.00000,   949.80000
    628.96,  2767.00000,   945.50000
    629.43,  2759.20000,   947.60000
    629.89,  2751.00000,   949.70000
    630.36,  2758.00000,   953.30000
    630.82,  2750.00000,   962.00000
    631.29,  2756.20000,   963.40000
    631.76,  2743.70000,   956.30000
    632.22,  2736.30000,   953.30000
    632.69,  2740.30000,   948.70000
    633.15,  2755.80000,   946.00000
    633.62,  2787.60000,   951.90000
    634.09,  2808.30000,   945.30000
    634.55,  2808.30000,   950.20000
    635.02,  2777.80000,   952.00000
    635.48,  2760.50000,   953.70000
    635.95,  2742.70000,   959.10000
    636.42,  2747.00000,   965.40000
    636.88,  2740.10000,   964.60000
    637.35,  2737.20000,   959.30000
    637.81,  2754.20000,   938.70000
    638.28,  2763.60000,   929.90000
    638.74,  2784.50000,   918.70000
    639.21,  2788.30000,   922.50000
    639.68,  2764.30000,   936.10000
    640.14,  2729.20000,   948.80000
    640.61,  2741.70000,   948.70000
    641.07,  2720.20000,   949.40000
    641.54,  2741.00000,   938.70000
    642.00,  2758.10000,   934.50000
    642.47,  2779.40000,   933.30000
    642.93,  2778.70000,   938.80000
    643.40,  2784.70000,   936.50000
    643.87,  2764.60000,   934.40000
    644.33,  2763.30000,   941.50000
    644.80,  2762.50000,   948.80000
    645.26,  2751.30000,   950.40000
    645.73,  2740.70000,   950.10000
    646.19,  2733.10000,   946.00000
    646.66,  2738.30000,   939.00000
    647.12,  2737.10000,   932.60000
    647.59,  2744.20000,   938.90000
    648.05,  2757.50000,   933.70000
    648.52,  2750.60000,   937.00000
    648.98,  2747.10000,   941.00000
    649.45,  2739.00000,   938.40000
    649.91,  2719.90000,   935.10000
    650.38,  2718.20000,   944.70000
    650.84,  2767.50000,   942.50000
    651.31,  2756.20000,   954.00000
    651.77,  2757.50000,   956.20000
    652.24,  2733.70000,   951.00000
    652.70,  2718.20000,   943.60000
    653.17,  2702.90000,   945.00000
    653.63,  2735.70000,   939.10000
    654.10,  2726.50000,   940.60000
    654.56,  2744.00000,   939.60000
    655.03,  2747.70000,   938.00000
    655.49,  2758.80000,   942.50000
    655.96,  2753.70000,   945.00000
    656.42,  2742.40000,   945.70000
    656.89,  2722.80000,   950.40000
    657.35,  2772.80000,   950.10000
    657.82,  2818.30000,   946.20000
    658.28,  2853.90000,   941.80000
    658.75,  2871.40000,   928.20000
    659.21,  2826.50000,   923.70000
    659.68,  2792.10000,   924.50000
    660.14,  2776.20000,   923.30000
    660.61,  2735.00000,   925.10000
    661.07,  2772.40000,   915.80000
    661.53,  2794.30000,   908.50000
    662.00,  2816.40000,   902.40000
    662.46,  2818.50000,   892.30000
    662.93,  2797.40000,   897.90000
    663.39,  2761.30000,   904.00000
    663.86,  2793.80000,   901.80000
    664.32,  2787.70000,   913.10000
    664.79,  2803.90000,   922.40000
    665.25,  2788.60000,   914.10000
    665.71,  2767.30000,   916.00000
    666.18,  2738.30000,   909.20000
    666.64,  2768.10000,   899.30000
    667.11,  2761.10000,   910.70000
    667.57,  2769.20000,   925.70000
    668.04,  2779.60000,   930.10000
    668.50,  2760.50000,   939.20000
    668.96,  2741.30000,   929.80000
    669.43,  2770.70000,   915.00000
    669.89,  2750.90000,   904.50000
    670.36,  2726.70000,   899.90000
    670.82,  2726.60000,   907.90000
    671.28,  2732.90000,   919.10000
    671.75,  2744.60000,   919.60000
    672.21,  2781.50000,   913.90000
    672.68,  2785.80000,   906.30000
    673.14,  2787.90000,   899.60000
    673.60,  2779.20000,   913.60000
    674.07,  2820.80000,   842.60000
    674.53,  2844.60000,   781.60000
    675.00,  2858.10000,   756.80000
    675.46,  2832.80000,   777.20000
    675.92,  2790.80000,   826.20000
    676.39,  2756.70000,   900.40000
    676.85,  2765.80000,   894.30000
    677.31,  2782.40000,   881.90000
    677.78,  2782.50000,   888.70000
    678.24,  2767.40000,   892.00000
    678.70,  2749.30000,   882.40000
    679.17,  2733.90000,   881.30000
    679.63,  2708.50000,   880.90000
    680.10,  2712.40000,   874.80000
    680.56,  2735.60000,   876.20000
    681.02,  2734.50000,   874.10000
    681.49,  2765.40000,   868.60000
    681.95,  2763.10000,   864.30000
    682.41,  2753.90000,   862.80000
    682.88,  2750.20000,   856.70000
    683.34,  2754.70000,   852.60000
    683.80,  2734.00000,   853.80000
    684.27,  2754.50000,   854.20000
    684.73,  2756.30000,   860.90000
    685.19,  2772.20000,   863.00000
    685.66,  2790.70000,   865.70000
    686.12,  2789.30000,   865.60000
    686.58,  2806.20000,   862.60000
    687.05,  2801.80000,   859.20000
    687.51,  2783.10000,   859.50000
    687.97,  2773.80000,   855.80000
    688.44,  2772.70000,   857.10000
    688.90,  2771.80000,   852.30000
    689.36,  2777.80000,   846.60000
    689.83,  2774.00000,   853.00000
    690.29,  2783.50000,   849.20000
    690.75,  2799.50000,   844.40000
    691.21,  2813.30000,   841.30000
    691.68,  2797.10000,   846.60000
    692.14,  2763.70000,   853.60000
    692.60,  2762.50000,   863.00000
    693.07,  2747.50000,   865.10000
    693.53,  2771.00000,   852.50000
    693.99,  2792.30000,   842.50000
    694.45,  2791.10000,   836.10000
    694.92,  2800.60000,   838.20000
    695.38,  2809.20000,   842.50000
    695.84,  2787.90000,   851.60000
    696.31,  2781.00000,   838.10000
    696.77,  2788.50000,   841.90000
    697.23,  2784.00000,   837.00000
    697.69,  2783.60000,   836.50000
    698.16,  2769.80000,   840.20000
    698.62,  2752.90000,   838.40000
    699.08,  2736.60000,   828.30000
    699.54,  2733.90000,   828.70000
    700.01,  2730.00000,   832.40000
    700.47,  2718.00000,   839.80000
    700.93,  2720.40000,   843.30000
    701.39,  2728.20000,   848.10000
    701.86,  2742.30000,   848.10000
    702.32,  2740.20000,   839.70000
    702.78,  2750.80000,   842.40000
    703.24,  2754.90000,   835.60000
    703.71,  2757.70000,   834.00000
    704.17,  2767.80000,   839.10000
    704.63,  2758.70000,   837.50000
    705.09,  2747.20000,   828.40000
    705.56,  2776.30000,   823.70000
    706.02,  2790.80000,   814.30000
    706.48,  2766.60000,   817.60000
    706.94,  2760.10000,   827.50000
    707.40,  2733.50000,   832.20000
    707.87,  2733.90000,   827.10000
    708.33,  2748.00000,   830.90000
    708.79,  2738.20000,   828.40000
    709.25,  2706.80000,   825.60000
    709.72,  2714.80000,   828.80000
    710.18,  2733.20000,   831.00000
    710.64,  2738.80000,   824.30000
    711.10,  2733.60000,   827.80000
    711.56,  2738.40000,   828.10000
    712.03,  2763.20000,   821.50000
    712.49,  2791.80000,   822.80000
    712.95,  2818.40000,   824.20000
    713.41,  2800.20000,   823.80000
    713.87,  2786.20000,   830.20000
    714.33,  2777.20000,   832.40000
    714.80,  2768.50000,   827.30000
    715.26,  2727.80000,   823.70000
    715.72,  2726.20000,   819.40000
    716.18,  2722.00000,   828.40000
    716.64,  2731.50000,   838.50000
    717.11,  2734.10000,   838.40000
    717.57,  2729.60000,   830.60000
    718.03,  2705.50000,   818.90000
    718.49,  2717.10000,   813.70000
    718.95,  2765.40000,   816.40000
    719.41,  2772.60000,   816.00000
    719.87,  2743.20000,   820.50000
    720.34,  2737.40000,   819.60000
    720.80,  2730.60000,   815.10000
    721.26,  2727.80000,   809.20000
    721.72,  2759.00000,   814.00000
    722.18,  2746.40000,   809.10000
    722.64,  2719.50000,   806.50000
    723.10,  2734.50000,   802.00000
    723.57,  2749.60000,   800.50000
    724.03,  2767.20000,   797.60000
    724.49,  2763.60000,   800.10000
    724.95,  2722.60000,   800.30000
    725.41,  2776.30000,   798.90000
    725.87,  2819.50000,   801.60000
    726.33,  2839.80000,   808.80000
    726.80,  2845.80000,   811.60000
    727.26,  2806.20000,   807.40000
    727.72,  2723.50000,   814.10000
    728.18,  2732.80000,   823.30000
    728.64,  2724.90000,   827.70000
    729.10,  2735.10000,   830.60000
    729.56,  2750.00000,   822.70000
    730.02,  2773.00000,   818.20000
    730.48,  2761.20000,   820.30000
    730.94,  2748.50000,   823.50000
    731.41,  2741.60000,   821.80000
    731.87,  2721.90000,   825.90000
    732.33,  2709.50000,   814.40000
    732.79,  2743.40000,   809.90000
    733.25,  2740.50000,   813.20000
    733.71,  2755.40000,   809.10000
    734.17,  2771.10000,   808.60000
    734.63,  2751.20000,   803.40000
    735.09,  2735.20000,   797.70000
    735.55,  2728.80000,   800.10000
    736.01,  2715.40000,   809.80000
    736.47,  2718.80000,   813.50000
    736.94,  2725.50000,   814.50000
    737.40,  2743.90000,   808.50000
    737.86,  2750.60000,   801.80000
    738.32,  2762.30000,   794.30000
    738.78,  2775.60000,   797.90000
    739.24,  2757.70000,   803.50000
    739.70,  2741.80000,   808.10000
    740.16,  2767.80000,   804.70000
    740.62,  2775.60000,   804.40000
    741.08,  2796.00000,   805.30000
    741.54,  2786.40000,   809.80000
    742.00,  2766.00000,   810.50000
    742.46,  2727.50000,   806.90000
    742.92,  2705.10000,   800.20000
    743.38,  2696.40000,   803.20000
    743.84,  2694.40000,   807.70000
    744.30,  2712.70000,   809.00000
    744.76,  2734.70000,   808.00000
    745.22,  2740.20000,   796.50000
    745.68,  2721.10000,   796.20000
    746.14,  2709.00000,   798.10000
    746.60,  2710.40000,   802.90000
    747.06,  2723.10000,   806.30000
    747.52,  2705.40000,   808.90000
    747.98,  2726.60000,   809.80000
    748.44,  2727.40000,   811.80000
    748.90,  2722.50000,   817.60000
    749.36,  2737.50000,   807.20000
    749.82,  2753.30000,   795.30000
    750.28,  2760.00000,   788.00000
    750.74,  2783.70000,   786.70000
    751.20,  2785.20000,   789.00000
    751.66,  2763.60000,   803.40000
    752.12,  2741.10000,   808.70000
    752.58,  2739.70000,   810.80000
    753.04,  2754.30000,   814.80000
    753.50,  2781.30000,   806.60000
    753.96,  2769.40000,   803.60000
    754.42,  2734.40000,   806.50000
    754.88,  2708.70000,   810.30000
    755.34,  2707.60000,   807.80000
    755.80,  2735.20000,   806.80000
    756.26,  2756.00000,   794.70000
    756.72,  2757.30000,   795.30000
    757.18,  2756.80000,   793.60000
    757.64,  2748.60000,   792.40000
    758.10,  2722.60000,   793.90000
    758.56,  2704.70000,   790.80000
    759.02,  2709.10000,   792.00000
    759.48,  2708.70000,   795.70000
    759.94,  2728.60000,   797.20000
    760.40,  2734.90000,   794.50000
    760.86,  2735.20000,   798.20000
    761.32,  2740.60000,   800.60000
    761.78,  2774.00000,   798.10000
    762.24,  2748.60000,   800.10000
    762.70,  2753.70000,   791.30000
    763.15,  2737.70000,   786.10000
    763.61,  2736.10000,   787.40000
    764.07,  2744.60000,   797.60000
    764.53,  2746.80000,   799.40000
    764.99,  2744.70000,   808.00000
    765.45,  2763.90000,   800.80000
    765.91,  2743.70000,   808.50000
    766.37,  2724.70000,   810.60000
    766.83,  2702.80000,   810.80000
    767.29,  2705.40000,   809.10000
    767.75,  2717.80000,   799.30000
    768.21,  2740.70000,   796.10000
    768.66,  2747.80000,   809.10000
    769.12,  2754.80000,   808.30000
    769.58,  2731.80000,   805.10000
    770.04,  2719.30000,   806.20000
    770.50,  2692.80000,   801.70000
    770.96,  2677.60000,   812.30000
    771.42,  2706.90000,   818.30000
    771.88,  2722.80000,   816.40000
    772.34,  2732.90000,   804.20000
    772.80,  2730.80000,   792.80000
    773.25,  2712.40000,   803.60000
    773.71,  2704.90000,   818.30000
    774.17,  2694.70000,   822.70000
    774.63,  2706.50000,   822.20000
    775.09,  2719.80000,   808.10000
    775.55,  2710.50000,   792.60000
    776.01,  2681.00000,   798.90000
    776.47,  2681.50000,   806.50000
    776.92,  2661.80000,   812.20000
    777.38,  2695.60000,   807.80000
    777.84,  2712.20000,   798.60000
    778.30,  2712.30000,   787.60000
    778.76,  2698.90000,   782.70000
    779.22,  2715.50000,   790.50000
    779.68,  2716.40000,   800.40000
    780.13,  2719.20000,   810.60000
    780.59,  2695.50000,   820.20000
    781.05,  2680.80000,   815.30000
    781.51,  2685.10000,   811.10000
    781.97,  2708.40000,   803.30000
    782.43,  2726.70000,   787.80000
    782.88,  2743.00000,   782.60000
    783.34,  2729.20000,   797.00000
    783.80,  2729.60000,   801.20000
    784.26,  2742.20000,   811.00000
    784.72,  2731.80000,   805.80000
    785.18,  2722.60000,   790.80000
    785.63,  2710.00000,   780.20000
    786.09,  2725.90000,   784.60000
    786.55,  2752.90000,   797.70000
    787.01,  2772.90000,   807.70000
    787.47,  2752.70000,   806.90000
    787.92,  2727.40000,   802.60000
    788.38,  2706.40000,   790.20000
    788.84,  2700.30000,   783.30000
    789.30,  2708.00000,   789.80000
    789.76,  2716.10000,   798.40000
    790.21,  2715.80000,   795.40000
    790.67,  2702.80000,   795.30000
    791.13,  2714.60000,   776.30000
    791.59,  2692.40000,   774.90000
    792.05,  2693.80000,   772.30000
    792.50,  2709.90000,   774.20000
    792.96,  2727.80000,   780.40000
    793.42,  2696.90000,   791.90000
    793.88,  2713.30000,   784.30000
    794.33,  2681.20000,   796.80000
    794.79,  2686.70000,   791.00000
    795.25,  2696.70000,   784.30000
    795.71,  2710.80000,   780.50000
    796.17,  2709.20000,   786.50000
    796.62,  2721.30000,   785.80000
    797.08,  2694.30000,   790.10000
    797.54,  2698.40000,   786.50000
    798.00,  2683.60000,   788.70000
    798.45,  2689.50000,   782.80000
    798.91,  2694.60000,   794.30000
    799.37,  2703.90000,   803.30000
    799.83,  2698.00000,   806.90000
    800.28,  2683.00000,   799.80000
    800.74,  2670.80000,   798.10000
    801.20,  2693.40000,   791.20000
    801.66,  2676.70000,   798.00000
    802.11,  2696.10000,   794.50000
    802.57,  2716.10000,   788.40000
    803.03,  2695.90000,   776.70000
    803.48,  2676.80000,   772.70000
    803.94,  2730.00000,   771.40000
    804.40,  2740.20000,   783.90000
    804.86,  2766.30000,   783.50000
    805.31,  2758.80000,   788.30000
    805.77,  2716.80000,   788.00000
    806.23,  2657.40000,   789.60000
    806.69,  2683.40000,   787.00000
    807.14,  2691.00000,   782.20000
    807.60,  2720.20000,   774.60000
    808.06,  2723.90000,   778.80000
    808.51,  2722.10000,   779.30000
    808.97,  2680.60000,   786.20000
    809.43,  2682.10000,   788.30000
    809.88,  2684.00000,   784.00000
    810.34,  2689.10000,   776.60000
    810.80,  2717.00000,   774.40000
    811.26,  2733.00000,   769.30000
    811.71,  2707.20000,   776.40000
    812.17,  2722.70000,   780.90000
    812.63,  2715.80000,   784.10000
    813.08,  2690.00000,   782.70000
    813.54,  2697.50000,   783.60000
    814.00,  2706.80000,   774.90000
    814.45,  2695.30000,   782.80000
    814.91,  2711.90000,   779.30000
    815.37,  2699.00000,   777.10000
    815.82,  2686.80000,   775.80000
    816.28,  2687.40000,   771.40000
    816.74,  2705.50000,   756.30000
    817.19,  2674.30000,   763.20000
    817.65,  2684.20000,   768.20000
    818.11,  2699.10000,   777.50000
    818.56,  2704.20000,   780.10000
    819.02,  2697.10000,   779.50000
    819.48,  2711.50000,   774.30000
    819.93,  2663.30000,   775.20000
    820.39,  2677.80000,   784.30000
    820.84,  2706.80000,   789.00000
    821.30,  2722.20000,   782.40000
    821.76,  2723.30000,   780.50000
    822.21,  2736.30000,   774.60000
    822.67,  2709.70000,   768.40000
    823.13,  2672.10000,   773.10000
    823.58,  2699.20000,   777.90000
    824.04,  2721.60000,   772.40000
    824.49,  2728.10000,   762.40000
    824.95,  2742.10000,   754.00000
    825.41,  2747.10000,   759.70000
    825.86,  2719.40000,   763.40000
    826.32,  2741.50000,   774.70000
    826.78,  2719.40000,   773.80000
    827.23,  2691.10000,   776.50000
    827.69,  2668.50000,   776.80000
    828.14,  2672.90000,   780.50000
    828.60,  2698.80000,   768.60000
    829.06,  2726.90000,   761.50000
    829.51,  2723.10000,   747.20000
    829.97,  2728.50000,   749.70000
    830.42,  2715.80000,   755.90000
    830.88,  2693.50000,   761.30000
    831.34,  2696.60000,   753.70000
    831.79,  2720.30000,   757.90000
    832.25,  2724.20000,   754.50000
    832.70,  2713.10000,   765.30000
    833.16,  2713.50000,   771.70000
    833.61,  2702.90000,   766.50000
    834.07,  2700.30000,   757.40000
    834.53,  2703.50000,   756.60000
    834.98,  2693.90000,   758.90000
    835.44,  2668.30000,   766.00000
    835.89,  2679.90000,   771.50000
    836.35,  2695.80000,   771.60000
    836.80,  2719.50000,   767.50000
    837.26,  2706.70000,   761.70000
    837.71,  2683.20000,   762.90000
    838.17,  2674.60000,   762.20000
    838.63,  2671.00000,   763.60000
    839.08,  2674.10000,   762.20000
    839.54,  2694.40000,   754.40000
    839.99,  2686.40000,   753.90000
    840.45,  2696.90000,   750.40000
    840.90,  2714.60000,   754.60000
    841.36,  2729.70000,   753.40000
    841.81,  2722.40000,   754.40000
    842.27,  2712.50000,   747.10000
    842.72,  2689.00000,   747.00000
    843.18,  2687.90000,   745.40000
    843.63,  2663.60000,   758.90000
    844.09,  2666.60000,   772.00000
    844.55,  2656.40000,   778.10000
    845.00,  2656.00000,   779.20000
    845.46,  2669.70000,   774.20000
    845.91,  2680.30000,   769.20000
    846.37,  2694.00000,   762.10000
    846.82,  2718.10000,   754.70000
    847.28,  2725.20000,   743.30000
    847.73,  2677.10000,   748.00000
    848.19,  2709.70000,   744.00000
    848.64,  2711.30000,   747.70000
    849.10,  2735.20000,   745.40000
    849.55,  2738.70000,   740.10000
    850.01,  2726.30000,   743.80000
    850.46,  2671.50000,   751.60000
    850.92,  2698.20000,   758.50000
    851.37,  2697.90000,   763.20000
    851.83,  2702.80000,   763.70000
    852.28,  2705.60000,   755.00000
    852.73,  2687.40000,   748.20000
    853.19,  2662.20000,   745.90000
    853.64,  2664.60000,   753.50000
    854.10,  2665.20000,   756.50000
    854.55,  2673.60000,   760.70000
    855.01,  2688.20000,   759.40000
    855.46,  2664.30000,   755.10000
    855.92,  2654.00000,   755.50000
    856.37,  2652.90000,   747.40000
    856.83,  2647.70000,   745.20000
    857.28,  2672.80000,   746.90000
    857.74,  2680.10000,   745.20000
    858.19,  2680.30000,   744.00000
    858.64,  2701.10000,   740.90000
    859.10,  2693.30000,   739.40000
    859.55,  2671.60000,   744.50000
    860.01,  2731.30000,   745.70000
    860.46,  2752.60000,   747.50000
    860.92,  2742.50000,   754.60000
    861.37,  2732.00000,   748.10000
    861.83,  2716.30000,   755.00000
    862.28,  2688.60000,   747.80000
    862.73,  2715.00000,   741.30000
    863.19,  2703.80000,   739.70000
    863.64,  2679.20000,   743.40000
    864.10,  2667.40000,   731.20000
    864.55,  2684.60000,   737.90000
    865.01,  2687.50000,   734.90000
    865.46,  2700.90000,   746.00000
    865.91,  2686.20000,   751.40000
    866.37,  2676.00000,   749.10000
    866.82,  2671.10000,   749.00000
    867.28,  2664.60000,   750.10000
    867.73,  2660.30000,   751.60000
    868.18,  2688.30000,   755.80000
    868.64,  2698.80000,   753.30000
    869.09,  2721.40000,   750.10000
    869.55,  2731.40000,   755.50000
    870.00,  2714.30000,   748.50000
    870.45,  2695.90000,   749.40000
    870.91,  2665.40000,   752.50000
    871.36,  2642.80000,   757.00000
    871.81,  2665.70000,   762.70000
    872.27,  2691.90000,   764.30000
    872.72,  2701.80000,   760.10000
    873.18,  2700.00000,   751.10000
    873.63,  2673.90000,   747.00000
    874.08,  2668.60000,   739.90000
    874.54,  2682.10000,   738.90000
    874.99,  2675.10000,   745.80000
    875.44,  2650.50000,   756.80000
    875.90,  2632.60000,   760.10000
    876.35,  2630.90000,   765.90000
    876.81,  2672.30000,   755.40000
    877.26,  2709.50000,   741.60000
    877.71,  2699.10000,   736.60000
    878.17,  2672.60000,   733.10000
    878.62,  2690.90000,   741.40000
    879.07,  2702.80000,   760.20000
    879.53,  2724.00000,   764.10000
    879.98,  2718.80000,   758.70000
    880.43,  2700.90000,   757.30000
    880.89,  2685.90000,   750.40000
    881.34,  2686.40000,   756.00000
    881.79,  2696.00000,   757.60000
    882.25,  2686.20000,   762.40000
    882.70,  2662.80000,   762.60000
    883.15,  2646.20000,   767.70000
    883.61,  2660.50000,   771.70000
    884.06,  2644.10000,   772.20000
    884.51,  2667.20000,   766.50000
    884.97,  2655.30000,   767.20000
    885.42,  2670.10000,   765.90000
    885.87,  2670.60000,   761.70000
    886.32,  2691.40000,   767.10000
    886.78,  2669.10000,   764.90000
    887.23,  2675.30000,   763.60000
    887.68,  2664.60000,   754.80000
    888.14,  2672.70000,   757.40000
    888.59,  2657.30000,   757.40000
    889.04,  2637.30000,   766.70000
    889.50,  2606.20000,   770.90000
    889.95,  2632.50000,   766.10000
    890.40,  2664.80000,   764.20000
    890.85,  2691.50000,   761.40000
    891.31,  2686.20000,   756.60000
    891.76,  2680.50000,   758.90000
    892.21,  2655.80000,   764.40000
    892.67,  2667.10000,   768.20000
    893.12,  2655.70000,   785.00000
    893.57,  2663.30000,   789.20000
    894.02,  2671.00000,   785.60000
    894.48,  2697.30000,   777.90000
    894.93,  2702.10000,   765.80000
    895.38,  2707.20000,   766.90000
    895.83,  2676.80000,   769.90000
    896.29,  2670.60000,   770.40000
    896.74,  2664.50000,   771.10000
    897.19,  2682.60000,   774.70000
    897.64,  2698.70000,   771.50000
    898.10,  2703.20000,   780.40000
    898.55,  2673.60000,   787.30000
    899.00,  2666.10000,   784.20000
    899.45,  2631.80000,   783.50000
    899.91,  2618.70000,   785.30000
    900.36,  2609.10000,   782.80000
    900.81,  2640.40000,   779.40000
    901.26,  2654.40000,   786.60000
    901.72,  2681.50000,   785.60000
    902.17,  2669.30000,   797.80000
    902.62,  2672.10000,   800.40000
    903.07,  2642.80000,   799.60000
    903.52,  2652.90000,   795.00000
    903.98,  2660.60000,   793.60000
    904.43,  2671.80000,   789.40000
    904.88,  2661.00000,   791.10000
    905.33,  2669.00000,   787.50000
    905.79,  2657.20000,   781.40000
    906.24,  2663.80000,   782.30000
    906.69,  2677.70000,   787.30000
    907.14,  2676.50000,   797.10000
    907.59,  2648.10000,   799.70000
    908.05,  2626.50000,   809.80000
    908.50,  2613.40000,   807.90000
    908.95,  2624.20000,   810.90000
    909.40,  2638.60000,   813.20000
    909.85,  2643.90000,   804.10000
    910.31,  2652.30000,   791.70000
    910.76,  2637.10000,   785.20000
    911.21,  2621.40000,   785.40000
    911.66,  2617.40000,   805.70000
    912.11,  2606.90000,   821.20000
    912.56,  2629.80000,   825.60000
    913.02,  2653.70000,   837.20000
    913.47,  2657.50000,   827.10000
    913.92,  2652.70000,   830.50000
    914.37,  2639.10000,   841.30000
    914.82,  2634.40000,   851.10000
    915.27,  2654.20000,   854.70000
    915.73,  2672.90000,   875.20000
    916.18,  2664.90000,   877.20000
    916.63,  2648.80000,   883.40000
    917.08,  2609.40000,   885.40000
    917.53,  2643.70000,   897.30000
    917.98,  2533.60000,   898.50000
    918.44,  2879.20000,   917.90000
    918.89,  3060.20000,   929.70000
    919.34,  3111.40000,   935.70000
    919.79,  3019.80000,   946.00000
    920.24,  2859.90000,   964.70000
    920.69,  2543.10000,   980.40000
    921.14,  2672.50000,  1013.70000
    921.59,  2659.70000,  1049.60000
    922.05,  2642.10000,  1088.00000
    922.50,  2633.80000,  1137.50000
    922.95,  2656.10000,  1186.20000
    923.40,  2682.60000,  1240.50000
    923.85,  2699.60000,  1313.50000
    924.30,  2709.80000,  1402.50000
    924.75,  2692.60000,  1532.50000
    925.20,  2663.50000,  1694.40000
    925.66,  2643.20000,  1880.30000
    926.11,  2635.80000,  2083.00000
    926.56,  2644.90000,  2284.70000
    927.01,  2667.00000,  2487.90000
    927.46,  2665.80000,  2731.10000
    927.91,  2632.50000,  3001.10000
    928.36,  2603.80000,  3299.60000
    928.81,  2614.10000,  3609.60000
    929.26,  2628.90000,  3942.30000
    929.71,  2660.90000,  4255.20000
    930.16,  2683.50000,  4553.50000
    930.62,  2653.70000,  4815.50000
    931.07,  2641.80000,  5037.20000
    931.52,  2647.80000,  5241.60000
    931.97,  2659.70000,  5455.60000
    932.42,  2675.80000,  5622.10000
    932.87,  2681.00000,  5783.00000
    933.32,  2661.10000,  5924.40000
    933.77,  2678.60000,  6041.40000
    934.22,  2667.70000,  6126.20000
    934.67,  2678.80000,  6180.20000
    935.12,  2678.10000,  6231.70000
    935.57,  2646.80000,  6309.30000
    936.02,  2617.50000,  6388.50000
    936.47,  2634.50000,  6460.20000
    936.93,  2610.40000,  6485.30000
    937.38,  2613.60000,  6497.50000
    937.83,  2633.60000,  6541.40000
    938.28,  2626.30000,  6652.50000
    938.73,  2619.60000,  6799.10000
    939.18,  2640.50000,  6959.60000
    939.63,  2652.50000,  7123.10000
    940.08,  2666.30000,  7304.30000
    940.53,  2683.10000,  7456.60000
    940.98,  2670.20000,  7649.30000
    941.43,  2643.60000,  7813.20000
    941.88,  2634.40000,  7902.10000
    942.33,  2647.40000,  7963.80000
    942.78,  2648.50000,  7977.30000
    943.23,  2664.20000,  7966.20000
    943.68,  2668.20000,  7987.10000
    944.13,  2678.50000,  8005.20000
    944.58,  2688.30000,  8010.90000
    945.03,  2684.70000,  8045.40000
    945.48,  2657.50000,  8099.40000
    945.93,  2648.90000,  8166.90000
    946.38,  2647.00000,  8235.70000
    946.83,  2667.90000,  8283.80000
    947.28,  2680.80000,  8293.50000
    947.73,  2684.50000,  8305.00000
    948.18,  2665.20000,  8367.20000
    948.63,  2643.10000,  8393.80000
    949.08,  2637.70000,  8410.20000
    949.53,  2620.50000,  8381.00000
    949.98,  2608.70000,  8316.40000
    950.43,  2627.80000,  8259.40000
    950.88,  2637.20000,  8187.20000
    951.33,  2650.70000,  8027.90000
    951.78,  2684.80000,  7879.90000
    952.23,  2680.80000,  7736.20000
    952.68,  2659.30000,  7662.10000
    953.13,  2666.90000,  7622.30000
    953.58,  2667.50000,  7566.00000
    954.03,  2656.40000,  7465.50000
    954.48,  2642.60000,  7415.50000
    954.93,  2633.70000,  7396.80000
    955.38,  2619.50000,  7376.50000
    955.83,  2634.80000,  7296.40000
    956.28,  2648.30000,  7161.70000
    956.73,  2660.80000,  6968.30000
    957.18,  2657.70000,  6746.30000
    957.62,  2651.00000,  6519.10000
    958.07,  2655.20000,  6300.20000
    958.52,  2638.10000,  6148.30000
    958.97,  2631.90000,  6068.30000
    959.42,  2630.70000,  6000.20000
    959.87,  2622.70000,  5887.20000
    960.32,  2624.10000,  5724.80000
    960.77,  2652.20000,  5527.00000
    961.22,  2688.50000,  5345.20000
    961.67,  2712.00000,  5198.40000
    962.12,  2685.80000,  5047.80000
    962.57,  2660.00000,  4901.10000
    963.02,  2657.20000,  4766.70000
    963.47,  2647.30000,  4632.70000
    963.92,  2669.70000,  4520.70000
    964.36,  2669.50000,  4435.70000
    964.81,  2655.70000,  4358.10000
    965.26,  2652.40000,  4316.30000
    965.71,  2662.80000,  4270.20000
    966.16,  2658.70000,  4203.20000
    966.61,  2648.30000,  4120.30000
    967.06,  2634.80000,  4007.20000
    967.51,  2650.30000,  3881.30000
    967.96,  2654.90000,  3776.70000
    968.41,  2663.20000,  3656.80000
    968.85,  2664.60000,  3521.20000
    969.30,  2653.60000,  3377.10000
    969.75,  2658.10000,  3222.60000
    970.20,  2660.40000,  3074.10000
    970.65,  2667.50000,  2953.40000
    971.10,  2647.60000,  2858.70000
    971.55,  2652.20000,  2758.60000
    972.00,  2636.40000,  2659.00000
    972.44,  2625.20000,  2551.60000
    972.89,  2650.90000,  2453.40000
    973.34,  2671.50000,  2375.90000
    973.79,  2668.80000,  2318.70000
    974.24,  2686.10000,  2279.50000
    974.69,  2660.60000,  2260.50000
    975.14,  2625.70000,  2253.60000
    975.59,  2632.60000,  2265.80000
    976.03,  2610.10000,  2302.60000
    976.48,  2608.80000,  2313.30000
    976.93,  2610.20000,  2321.20000
    977.38,  2614.50000,  2311.00000
    977.83,  2606.30000,  2300.00000
    978.28,  2622.40000,  2290.60000
    978.72,  2630.20000,  2300.40000
    979.17,  2650.70000,  2286.80000
    979.62,  2662.20000,  2281.30000
    980.07,  2668.10000,  2282.50000
    980.52,  2650.00000,  2300.70000
    980.97,  2626.90000,  2323.00000
    981.41,  2585.00000,  2350.80000
    981.86,  2566.90000,  2351.80000
    982.31,  2589.20000,  2323.50000
    982.76,  2606.20000,  2276.30000
    983.21,  2638.70000,  2214.00000
    983.66,  2638.30000,  2141.50000
    984.10,  2612.10000,  2060.50000
    984.55,  2593.70000,  1964.30000
    985.00,  2589.50000,  1870.00000
    985.45,  2571.10000,  1789.10000
    985.90,  2587.30000,  1731.80000
    986.34,  2603.40000,  1687.30000
    986.79,  2598.40000,  1640.50000
    987.24,  2597.80000,  1590.40000
    987.69,  2578.30000,  1553.30000
    988.14,  2581.40000,  1501.30000
    988.58,  2601.20000,  1455.70000
    989.03,  2619.80000,  1416.00000
    989.48,  2625.60000,  1369.50000
    989.93,  2623.70000,  1324.70000
    990.38,  2601.50000,  1274.90000
    990.82,  2610.90000,  1231.50000
    991.27,  2621.30000,  1202.40000
    991.72,  2644.10000,  1182.60000
    992.17,  2629.70000,  1169.00000
    992.61,  2628.60000,  1170.50000
    993.06,  2603.40000,  1155.20000
    993.51,  2628.20000,  1144.40000
    993.96,  2627.20000,  1126.90000
    994.41,  2621.70000,  1095.60000
    994.85,  2601.80000,  1063.60000
    995.30,  2614.30000,  1040.80000
    995.75,  2611.90000,  1025.20000
    996.20,  2656.70000,  1004.20000
    996.64,  2641.90000,   990.20000
    997.09,  2606.60000,   984.10000
    997.54,  2596.50000,   970.90000
    997.99,  2583.50000,   959.80000
    998.43,  2585.80000,   952.00000
    998.88,  2584.40000,   941.50000
    999.33,  2590.10000,   926.00000
    999.77,  2619.40000,   913.70000
   1000.22,  2640.40000,   910.00000
   1000.67,  2654.80000,   911.70000
   1001.12,  2657.90000,   914.00000
   1001.56,  2620.30000,   920.40000
   1002.01,  2598.60000,   914.90000
   1002.46,  2609.60000,   907.90000
   1002.91,  2588.40000,   898.00000
   1003.35,  2607.50000,   891.20000
   1003.80,  2602.00000,   878.90000
   1004.25,  2601.50000,   874.60000
   1004.69,  2600.20000,   876.70000
   1005.14,  2583.80000,   887.90000
   1005.59,  2588.20000,   884.10000
   1006.04,  2625.00000,   891.80000
   1006.48,  2644.20000,   886.40000
   1006.93,  2669.00000,   884.00000
   1007.38,  2659.10000,   880.50000
   1007.82,  2615.70000,   870.80000
   1008.27,  2600.40000,   856.50000
   1008.72,  2586.50000,   859.40000
   1009.16,  2582.70000,   864.90000
   1009.61,  2590.60000,   871.50000
   1010.06,  2585.60000,   884.00000
   1010.50,  2615.70000,   878.70000
   1010.95,  2648.60000,   869.60000
   1011.40,  2660.80000,   864.10000
   1011.85,  2645.70000,   856.90000
   1012.29,  2633.60000,   861.00000
   1012.74,  2602.60000,   863.40000
   1013.19,  2595.90000,   869.60000
   1013.63,  2636.00000,   867.90000
   1014.08,  2655.40000,   868.70000
   1014.53,  2645.60000,   862.70000
   1014.97,  2630.60000,   869.90000
   1015.42,  2605.00000,   866.00000
   1015.86,  2571.00000,   872.80000
   1016.31,  2597.10000,   866.60000
   1016.76,  2623.70000,   863.90000
   1017.20,  2614.40000,   858.70000
   1017.65,  2592.00000,   863.80000
   1018.10,  2583.10000,   867.90000
   1018.54,  2563.30000,   872.40000
   1018.99,  2585.40000,   874.50000
   1019.44,  2598.00000,   876.30000
   1019.88,  2596.00000,   876.60000
   1020.33,  2597.50000,   866.30000
   1020.78,  2609.00000,   863.00000
   1021.22,  2616.50000,   861.70000
   1021.67,  2618.10000,   868.10000
   1022.11,  2608.80000,   869.60000
   1022.56,  2606.90000,   872.40000
   1023.01,  2595.70000,   865.50000
   1023.45,  2579.60000,   867.50000
   1023.90,  2575.20000,   870.10000
   1024.34,  2558.70000,   875.20000
   1024.79,  2571.90000,   873.50000
   1025.24,  2594.90000,   868.30000
   1025.68,  2590.30000,   867.10000
   1026.13,  2590.30000,   871.10000
   1026.58,  2592.50000,   874.90000
   1027.02,  2602.90000,   880.60000
   1027.47,  2613.70000,   881.10000
   1027.91,  2613.90000,   873.60000
   1028.36,  2588.90000,   872.00000
   1028.80,  2579.50000,   863.50000
   1029.25,  2559.90000,   865.50000
   1029.70,  2564.10000,   875.10000
   1030.14,  2556.90000,   885.00000
   1030.59,  2557.10000,   883.90000
   1031.03,  2562.20000,   878.90000
   1031.48,  2582.90000,   863.50000
   1031.93,  2612.40000,   859.40000
   1032.37,  2643.00000,   857.30000
   1032.82,  2638.40000,   859.30000
   1033.26,  2641.30000,   860.40000
   1033.71,  2611.00000,   864.70000
   1034.15,  2596.20000,   872.10000
   1034.60,  2593.60000,   876.30000
   1035.05,  2606.40000,   874.20000
   1035.49,  2593.80000,   875.80000
   1035.94,  2592.80000,   877.20000
   1036.38,  2562.90000,   876.20000
   1036.83,  2542.40000,   883.90000
   1037.27,  2529.50000,   886.80000
   1037.72,  2532.10000,   889.00000
   1038.16,  2639.80000,   886.10000
   1038.61,  2716.10000,   878.80000
   1039.05,  2737.60000,   870.60000
   1039.50,  2719.00000,   872.90000
   1039.95,  2659.50000,   880.00000
   1040.39,  2587.30000,   888.90000
   1040.84,  2593.10000,   892.90000
   1041.28,  2585.10000,   894.00000
   1041.73,  2576.00000,   890.60000
   1042.17,  2577.10000,   885.50000
   1042.62,  2582.20000,   883.50000
   1043.06,  2601.80000,   883.50000
   1043.51,  2582.20000,   885.50000
   1043.95,  2594.70000,   892.20000
   1044.40,  2594.10000,   892.50000
   1044.84,  2578.20000,   892.30000
   1045.29,  2571.00000,   881.40000
   1045.73,  2576.50000,   886.20000
   1046.18,  2547.20000,   897.10000
   1046.62,  2571.80000,   874.60000
   1047.07,  2599.30000,   841.20000
   1047.51,  2594.90000,   827.40000
   1047.96,  2629.60000,   821.40000
   1048.40,  2654.30000,   844.50000
   1048.85,  2631.20000,   887.10000
   1049.29,  2612.00000,   897.80000
   1049.74,  2570.10000,   900.00000
   1050.18,  2527.20000,   905.00000
   1050.63,  2531.50000,   910.60000
   1051.07,  2550.40000,   900.50000
   1051.52,  2570.50000,   902.80000
   1051.96,  2563.50000,   903.40000
   1052.41,  2548.50000,   903.20000
   1052.85,  2548.40000,   899.70000
   1053.30,  2534.00000,   901.80000
   1053.74,  2531.40000,   905.50000
   1054.18,  2535.60000,   911.40000
   1054.63,  2521.00000,   915.80000
   1055.07,  2513.00000,   924.20000
   1055.52,  2514.90000,   924.10000
   1055.96,  2505.10000,   920.80000
   1056.41,  2497.70000,   923.70000
   1056.85,  2496.40000,   919.60000
   1057.30,  2496.40000,   922.50000
   1057.74,  2495.50000,   928.70000
   1058.18,  2494.90000,   928.20000
   1058.63,  2467.90000,   930.50000
   1059.07,  2467.30000,   923.80000
   1059.52,  2488.40000,   919.80000
   1059.96,  2492.40000,   921.00000
   1060.41,  2497.20000,   925.30000
   1060.85,  2503.00000,   920.00000
   1061.30,  2484.80000,   931.80000
   1061.74,  2478.10000,   934.00000
   1062.18,  2480.80000,   936.60000
   1062.63,  2453.60000,   943.70000
   1063.07,  2446.20000,   950.90000
   1063.52,  2444.70000,   946.80000
   1063.96,  2468.20000,   940.20000
   1064.40,  2475.30000,   934.70000
   1064.85,  2482.70000,   925.70000
   1065.29,  2462.90000,   928.90000
   1065.74,  2445.70000,   936.40000
   1066.18,  2411.80000,   942.90000
