2D Measure spectrum data V5.74

<< MEASURE 1 >>
Data count = 2048
Exposure time = 30000 msec
Average = 10
Inspected time = 2020/10/25 17:27

Wave-dcm-1,Dark spec.  ,Spectrum
    108.17,  2202.40000,   584.10000
    108.66,  2208.30000,   576.80000
    109.15,  2215.10000,   570.40000
    109.65,  2234.50000,   564.90000
    110.14,  2245.80000,   561.00000
    110.63,  2249.50000,   563.70000
    111.13,  2265.00000,   557.50000
    111.62,  2256.90000,   549.50000
    112.11,  2266.30000,   545.50000
    112.60,  2290.10000,   537.80000
    113.10,  2283.80000,   529.00000
    113.59,  2303.20000,   530.10000
    114.08,  2318.50000,   535.00000
    114.58,  2305.20000,   543.90000
    115.07,  2340.40000,   553.40000
    115.56,  2356.70000,   553.10000
    116.06,  2350.10000,   542.40000
    116.55,  2359.60000,   533.30000
    117.04,  2350.30000,   529.50000
    117.53,  2330.20000,   531.90000
    118.03,  2358.90000,   535.40000
    118.52,  2361.10000,   547.80000
    119.01,  2357.70000,   545.70000
    119.51,  2447.40000,   552.00000
    120.00,  2533.70000,   567.70000
    120.49,  2567.90000,   584.90000
    120.98,  2563.30000,   595.70000
    121.48,  2478.00000,   620.60000
    121.97,  2374.20000,   631.40000
    122.46,  2365.10000,   644.80000
    122.95,  2396.20000,   652.80000
    123.45,  2435.90000,   658.00000
    123.94,  2445.00000,   665.10000
    124.43,  2463.60000,   684.60000
    124.92,  2488.10000,   702.90000
    125.42,  2481.60000,   723.20000
    125.91,  2495.90000,   732.90000
    126.40,  2486.30000,   742.70000
    126.89,  2456.40000,   756.80000
    127.39,  2447.90000,   767.50000
    127.88,  2446.40000,   785.60000
    128.37,  2447.40000,   799.10000
    128.86,  2473.90000,   810.60000
    129.35,  2473.20000,   821.80000
    129.85,  2477.90000,   831.00000
    130.34,  2468.00000,   846.60000
    130.83,  2467.60000,   859.90000
    131.32,  2477.50000,   865.10000
    131.81,  2483.10000,   876.20000
    132.31,  2486.50000,   876.20000
    132.80,  2492.10000,   876.00000
    133.29,  2479.30000,   872.20000
    133.78,  2491.00000,   871.10000
    134.27,  2504.00000,   885.80000
    134.77,  2508.70000,   912.20000
    135.26,  2526.80000,   927.40000
    135.75,  2523.90000,   943.30000
    136.24,  2539.80000,   948.50000
    136.73,  2527.70000,   958.10000
    137.23,  2531.50000,   977.40000
    137.72,  2519.50000,   985.20000
    138.21,  2517.90000,   980.20000
    138.70,  2510.50000,   976.20000
    139.19,  2547.10000,   977.30000
    139.68,  2537.10000,   985.90000
    140.18,  2541.00000,   993.20000
    140.67,  2548.50000,   995.20000
    141.16,  2557.70000,   991.30000
    141.65,  2549.60000,   996.50000
    142.14,  2548.70000,  1007.60000
    142.63,  2562.30000,  1031.50000
    143.13,  2553.70000,  1054.00000
    143.62,  2585.20000,  1073.10000
    144.11,  2588.90000,  1078.90000
    144.60,  2555.60000,  1085.00000
    145.09,  2544.30000,  1089.00000
    145.58,  2600.80000,  1095.50000
    146.07,  2613.20000,  1107.30000
    146.56,  2630.90000,  1107.30000
    147.06,  2625.30000,  1102.30000
    147.55,  2596.00000,  1109.60000
    148.04,  2544.90000,  1127.40000
    148.53,  2577.40000,  1138.80000
    149.02,  2546.20000,  1161.80000
    149.51,  2620.30000,  1178.70000
    150.00,  2679.60000,  1180.60000
    150.49,  2706.50000,  1208.60000
    150.99,  2695.40000,  1243.10000
    151.48,  2669.90000,  1274.30000
    151.97,  2585.30000,  1304.40000
    152.46,  2594.10000,  1337.70000
    152.95,  2584.40000,  1330.60000
    153.44,  2584.30000,  1339.70000
    153.93,  2599.30000,  1340.70000
    154.42,  2615.80000,  1339.50000
    154.91,  2603.60000,  1335.20000
    155.40,  2597.30000,  1334.20000
    155.89,  2578.10000,  1336.30000
    156.39,  2592.10000,  1344.50000
    156.88,  2567.70000,  1350.10000
    157.37,  2578.30000,  1355.20000
    157.86,  2583.90000,  1374.20000
    158.35,  2594.90000,  1394.70000
    158.84,  2604.80000,  1437.10000
    159.33,  2654.90000,  1468.40000
    159.82,  2658.60000,  1489.70000
    160.31,  2671.60000,  1495.40000
    160.80,  2723.40000,  1483.20000
    161.29,  2692.90000,  1467.80000
    161.78,  2667.00000,  1470.90000
    162.27,  2638.20000,  1490.20000
    162.76,  2616.80000,  1524.50000
    163.25,  2603.70000,  1558.60000
    163.74,  2638.50000,  1568.10000
    164.23,  2643.80000,  1572.50000
    164.72,  2667.10000,  1591.50000
    165.21,  2648.20000,  1607.20000
    165.70,  2632.30000,  1626.90000
    166.20,  2661.70000,  1650.50000
    166.69,  2684.00000,  1656.80000
    167.18,  2694.40000,  1668.70000
    167.67,  2688.60000,  1672.30000
    168.16,  2661.40000,  1661.30000
    168.65,  2611.50000,  1643.20000
    169.14,  2641.10000,  1624.80000
    169.63,  2637.50000,  1614.20000
    170.12,  2626.80000,  1611.90000
    170.61,  2620.10000,  1602.60000
    171.10,  2678.60000,  1596.20000
    171.59,  2683.70000,  1585.60000
    172.08,  2700.20000,  1578.70000
    172.57,  2698.20000,  1576.20000
    173.06,  2692.40000,  1575.40000
    173.55,  2670.70000,  1582.30000
    174.04,  2648.90000,  1594.20000
    174.53,  2639.60000,  1606.40000
    175.02,  2632.40000,  1618.70000
    175.50,  2664.20000,  1613.60000
    175.99,  2701.10000,  1607.70000
    176.48,  2729.80000,  1595.00000
    176.97,  2706.80000,  1576.60000
    177.46,  2710.70000,  1565.00000
    177.95,  2682.00000,  1561.70000
    178.44,  2662.60000,  1558.20000
    178.93,  2645.80000,  1561.90000
    179.42,  2665.60000,  1561.70000
    179.91,  2678.10000,  1555.80000
    180.40,  2695.40000,  1563.90000
    180.89,  2696.80000,  1583.60000
    181.38,  2677.50000,  1601.10000
    181.87,  2667.90000,  1615.90000
    182.36,  2669.60000,  1623.70000
    182.85,  2641.50000,  1625.30000
    183.34,  2664.70000,  1623.10000
    183.83,  2667.10000,  1623.80000
    184.32,  2657.80000,  1616.20000
    184.81,  2702.10000,  1602.40000
    185.29,  2708.50000,  1589.90000
    185.78,  2676.60000,  1583.80000
    186.27,  2683.40000,  1575.80000
    186.76,  2671.40000,  1572.70000
    187.25,  2642.40000,  1569.10000
    187.74,  2714.40000,  1575.80000
    188.23,  2744.60000,  1581.70000
    188.72,  2766.80000,  1586.00000
    189.21,  2748.80000,  1594.20000
    189.70,  2721.70000,  1597.40000
    190.19,  2688.80000,  1603.20000
    190.67,  2680.00000,  1610.30000
    191.16,  2680.70000,  1610.10000
    191.65,  2686.30000,  1607.50000
    192.14,  2663.80000,  1604.20000
    192.63,  2687.30000,  1601.90000
    193.12,  2696.10000,  1609.60000
    193.61,  2678.00000,  1612.30000
    194.10,  2692.80000,  1614.70000
    194.59,  2685.80000,  1611.60000
    195.07,  2683.90000,  1601.90000
    195.56,  2702.80000,  1594.80000
    196.05,  2683.20000,  1592.10000
    196.54,  2670.10000,  1593.90000
    197.03,  2687.80000,  1598.30000
    197.52,  2725.70000,  1589.60000
    198.01,  2737.80000,  1578.20000
    198.49,  2741.20000,  1570.00000
    198.98,  2731.50000,  1559.00000
    199.47,  2690.00000,  1548.50000
    199.96,  2679.60000,  1548.00000
    200.45,  2693.60000,  1545.20000
    200.94,  2679.30000,  1535.30000
    201.43,  2684.00000,  1530.10000
    201.91,  2681.70000,  1517.40000
    202.40,  2671.20000,  1504.90000
    202.89,  2670.90000,  1514.80000
    203.38,  2686.60000,  1522.70000
    203.87,  2693.00000,  1517.40000
    204.36,  2680.90000,  1518.10000
    204.84,  2683.00000,  1510.90000
    205.33,  2694.60000,  1510.80000
    205.82,  2710.00000,  1520.40000
    206.31,  2704.60000,  1523.00000
    206.80,  2704.50000,  1525.30000
    207.28,  2713.20000,  1529.00000
    207.77,  2724.50000,  1519.10000
    208.26,  2728.00000,  1529.30000
    208.75,  2728.30000,  1545.30000
    209.24,  2701.20000,  1556.70000
    209.72,  2709.50000,  1562.30000
    210.21,  2727.40000,  1562.90000
    210.70,  2708.80000,  1555.80000
    211.19,  2722.00000,  1562.00000
    211.68,  2733.80000,  1570.30000
    212.16,  2742.70000,  1576.60000
    212.65,  2755.30000,  1580.80000
    213.14,  2737.70000,  1598.80000
    213.63,  2721.20000,  1613.40000
    214.12,  2698.00000,  1617.00000
    214.60,  2716.10000,  1620.40000
    215.09,  2731.70000,  1627.20000
    215.58,  2733.80000,  1633.90000
    216.07,  2727.50000,  1648.40000
    216.55,  2729.60000,  1665.70000
    217.04,  2665.70000,  1679.60000
    217.53,  2668.40000,  1684.40000
    218.02,  2667.40000,  1697.80000
    218.50,  2682.90000,  1710.20000
    218.99,  2706.70000,  1722.60000
    219.48,  2725.60000,  1740.60000
    219.97,  2693.40000,  1759.60000
    220.45,  2697.20000,  1774.70000
    220.94,  2683.90000,  1796.50000
    221.43,  2699.50000,  1822.80000
    221.92,  2718.20000,  1840.40000
    222.40,  2724.80000,  1839.50000
    222.89,  2720.10000,  1838.70000
    223.38,  2735.20000,  1847.30000
    223.86,  2743.30000,  1857.50000
    224.35,  2759.20000,  1869.30000
    224.84,  2755.50000,  1871.50000
    225.33,  2750.80000,  1857.00000
    225.81,  2717.10000,  1857.60000
    226.30,  2702.70000,  1848.60000
    226.79,  2701.80000,  1838.70000
    227.27,  2692.40000,  1822.10000
    227.76,  2699.60000,  1803.70000
    228.25,  2731.10000,  1788.60000
    228.74,  2742.20000,  1778.90000
    229.22,  2763.90000,  1757.60000
    229.71,  2760.70000,  1739.90000
    230.20,  2735.20000,  1716.40000
    230.68,  2731.10000,  1687.50000
    231.17,  2714.50000,  1668.90000
    231.66,  2692.00000,  1640.60000
    232.14,  2696.00000,  1606.40000
    232.63,  2686.40000,  1588.70000
    233.12,  2701.60000,  1569.60000
    233.60,  2728.10000,  1547.20000
    234.09,  2700.00000,  1539.50000
    234.58,  2685.40000,  1532.10000
    235.06,  2693.70000,  1508.30000
    235.55,  2685.00000,  1503.70000
    236.04,  2677.90000,  1492.00000
    236.52,  2700.10000,  1474.10000
    237.01,  2681.80000,  1456.70000
    237.50,  2713.90000,  1446.30000
    237.98,  2712.00000,  1433.10000
    238.47,  2767.10000,  1437.40000
    238.96,  2774.50000,  1428.30000
    239.44,  2766.80000,  1414.60000
    239.93,  2757.10000,  1404.00000
    240.41,  2713.60000,  1399.80000
    240.90,  2650.10000,  1393.40000
    241.39,  2675.10000,  1405.60000
    241.87,  2728.90000,  1388.70000
    242.36,  2751.00000,  1384.80000
    242.85,  2792.60000,  1378.30000
    243.33,  2778.30000,  1380.10000
    243.82,  2741.80000,  1384.40000
    244.30,  2707.20000,  1388.50000
    244.79,  2719.30000,  1376.30000
    245.28,  2710.50000,  1364.90000
    245.76,  2713.10000,  1345.10000
    246.25,  2694.20000,  1348.60000
    246.74,  2711.00000,  1362.70000
    247.22,  2739.80000,  1358.30000
    247.71,  2737.30000,  1364.80000
    248.19,  2730.40000,  1356.20000
    248.68,  2727.00000,  1352.20000
    249.16,  2688.40000,  1351.00000
    249.65,  2722.40000,  1356.30000
    250.14,  2739.50000,  1347.60000
    250.62,  2713.60000,  1353.60000
    251.11,  2688.70000,  1349.70000
    251.59,  2673.10000,  1342.10000
    252.08,  2665.30000,  1333.20000
    252.57,  2682.70000,  1338.20000
    253.05,  2685.30000,  1343.10000
    253.54,  2721.60000,  1356.00000
    254.02,  2743.10000,  1359.00000
    254.51,  2750.80000,  1356.50000
    254.99,  2750.90000,  1352.70000
    255.48,  2721.50000,  1347.20000
    255.96,  2693.80000,  1341.00000
    256.45,  2721.60000,  1335.20000
    256.94,  2722.50000,  1338.70000
    257.42,  2714.80000,  1338.80000
    257.91,  2720.60000,  1337.70000
    258.39,  2721.10000,  1337.70000
    258.88,  2717.40000,  1325.80000
    259.36,  2743.70000,  1321.70000
    259.85,  2741.50000,  1333.00000
    260.33,  2747.50000,  1336.80000
    260.82,  2762.20000,  1345.90000
    261.30,  2766.30000,  1353.50000
    261.79,  2738.30000,  1355.40000
    262.27,  2716.30000,  1360.40000
    262.76,  2696.00000,  1367.00000
    263.24,  2700.00000,  1365.30000
    263.73,  2732.30000,  1357.90000
    264.22,  2732.70000,  1352.80000
    264.70,  2792.80000,  1359.20000
    265.19,  2818.50000,  1367.60000
    265.67,  2810.60000,  1376.50000
    266.16,  2781.80000,  1385.20000
    266.64,  2757.50000,  1380.90000
    267.13,  2687.10000,  1385.60000
    267.61,  2692.70000,  1392.80000
    268.10,  2719.90000,  1398.60000
    268.58,  2724.20000,  1400.10000
    269.06,  2726.60000,  1405.70000
    269.55,  2739.90000,  1406.60000
    270.03,  2737.00000,  1430.00000
    270.52,  2731.20000,  1437.10000
    271.00,  2745.00000,  1446.80000
    271.49,  2748.00000,  1443.70000
    271.97,  2758.60000,  1435.80000
    272.46,  2766.00000,  1437.50000
    272.94,  2759.30000,  1462.00000
    273.43,  2746.40000,  1464.60000
    273.91,  2715.40000,  1481.10000
    274.40,  2701.50000,  1489.10000
    274.88,  2700.80000,  1484.00000
    275.37,  2711.80000,  1486.40000
    275.85,  2714.50000,  1487.00000
    276.33,  2721.80000,  1475.40000
    276.82,  2730.00000,  1488.00000
    277.30,  2737.70000,  1501.50000
    277.79,  2731.50000,  1513.60000
    278.27,  2740.70000,  1529.60000
    278.76,  2750.70000,  1544.40000
    279.24,  2753.80000,  1547.70000
    279.73,  2747.70000,  1552.80000
    280.21,  2740.50000,  1547.20000
    280.69,  2720.00000,  1535.80000
    281.18,  2728.60000,  1530.00000
    281.66,  2746.50000,  1536.60000
    282.15,  2782.90000,  1537.10000
    282.63,  2773.90000,  1535.20000
    283.11,  2763.20000,  1537.20000
    283.60,  2757.10000,  1541.80000
    284.08,  2768.10000,  1549.60000
    284.57,  2743.30000,  1553.70000
    285.05,  2741.70000,  1555.80000
    285.53,  2713.10000,  1553.30000
    286.02,  2689.20000,  1548.80000
    286.50,  2708.80000,  1545.80000
    286.99,  2732.50000,  1538.80000
    287.47,  2722.10000,  1537.90000
    287.95,  2720.30000,  1534.20000
    288.44,  2714.80000,  1528.40000
    288.92,  2713.50000,  1525.90000
    289.41,  2726.60000,  1518.80000
    289.89,  2747.60000,  1507.00000
    290.37,  2753.40000,  1499.30000
    290.86,  2776.40000,  1493.10000
    291.34,  2743.00000,  1490.50000
    291.82,  2724.50000,  1492.30000
    292.31,  2698.20000,  1491.30000
    292.79,  2707.90000,  1478.60000
    293.28,  2707.90000,  1467.80000
    293.76,  2719.20000,  1462.10000
    294.24,  2720.60000,  1456.40000
    294.73,  2739.40000,  1446.10000
    295.21,  2751.50000,  1433.80000
    295.69,  2763.50000,  1423.30000
    296.18,  2738.10000,  1410.80000
    296.66,  2697.00000,  1399.60000
    297.14,  2689.80000,  1385.90000
    297.63,  2697.00000,  1360.90000
    298.11,  2718.40000,  1344.80000
    298.59,  2753.90000,  1341.50000
    299.08,  2765.00000,  1336.10000
    299.56,  2767.40000,  1332.60000
    300.04,  2784.60000,  1331.70000
    300.53,  2788.70000,  1326.00000
    301.01,  2779.80000,  1320.10000
    301.49,  2777.40000,  1310.00000
    301.98,  2742.10000,  1305.10000
    302.46,  2719.60000,  1291.80000
    302.94,  2721.70000,  1278.60000
    303.42,  2720.00000,  1280.00000
    303.91,  2702.30000,  1271.10000
    304.39,  2692.00000,  1264.50000
    304.87,  2691.30000,  1260.80000
    305.36,  2706.80000,  1254.00000
    305.84,  2743.60000,  1243.00000
    306.32,  2776.00000,  1241.50000
    306.81,  2764.20000,  1227.30000
    307.29,  2737.30000,  1213.60000
    307.77,  2728.00000,  1196.40000
    308.25,  2722.80000,  1191.70000
    308.74,  2741.00000,  1188.60000
    309.22,  2740.50000,  1191.00000
    309.70,  2726.00000,  1189.60000
    310.18,  2718.20000,  1176.30000
    310.67,  2726.00000,  1170.80000
    311.15,  2737.80000,  1164.10000
    311.63,  2754.00000,  1158.70000
    312.12,  2761.40000,  1156.30000
    312.60,  2737.10000,  1146.80000
    313.08,  2714.50000,  1136.50000
    313.56,  2698.50000,  1135.60000
    314.05,  2690.10000,  1133.60000
    314.53,  2704.00000,  1146.50000
    315.01,  2758.70000,  1158.90000
    315.49,  2762.50000,  1146.70000
    315.98,  2768.90000,  1139.40000
    316.46,  2750.60000,  1130.20000
    316.94,  2713.80000,  1125.40000
    317.42,  2692.30000,  1128.80000
    317.90,  2697.70000,  1131.40000
    318.39,  2676.20000,  1129.70000
    318.87,  2726.20000,  1124.90000
    319.35,  2756.10000,  1114.60000
    319.83,  2763.10000,  1107.20000
    320.32,  2774.40000,  1100.00000
    320.80,  2787.10000,  1094.60000
    321.28,  2739.50000,  1099.80000
    321.76,  2769.50000,  1098.90000
    322.24,  2770.80000,  1096.50000
    322.73,  2780.40000,  1091.20000
    323.21,  2782.20000,  1094.80000
    323.69,  2787.70000,  1098.10000
    324.17,  2738.20000,  1098.10000
    324.65,  2710.40000,  1095.70000
    325.14,  2717.70000,  1091.70000
    325.62,  2728.80000,  1090.00000
    326.10,  2774.20000,  1097.30000
    326.58,  2787.90000,  1114.80000
    327.06,  2750.30000,  1128.40000
    327.55,  2770.20000,  1121.30000
    328.03,  2795.00000,  1115.10000
    328.51,  2797.20000,  1107.60000
    328.99,  2812.50000,  1098.40000
    329.47,  2792.40000,  1103.90000
    329.95,  2720.20000,  1107.00000
    330.44,  2736.60000,  1100.00000
    330.92,  2707.50000,  1097.50000
    331.40,  2699.50000,  1088.00000
    331.88,  2691.40000,  1083.00000
    332.36,  2705.10000,  1072.60000
    332.84,  2729.10000,  1068.60000
    333.33,  2772.30000,  1073.80000
    333.81,  2774.30000,  1067.20000
    334.29,  2787.30000,  1064.00000
    334.77,  2780.50000,  1061.70000
    335.25,  2763.30000,  1050.80000
    335.73,  2778.30000,  1051.20000
    336.21,  2770.50000,  1062.40000
    336.69,  2756.70000,  1059.10000
    337.18,  2744.80000,  1062.50000
    337.66,  2718.80000,  1060.50000
    338.14,  2698.20000,  1057.00000
    338.62,  2696.30000,  1059.70000
    339.10,  2720.30000,  1067.70000
    339.58,  2769.60000,  1059.10000
    340.06,  2785.10000,  1047.30000
    340.54,  2788.90000,  1042.30000
    341.03,  2775.50000,  1035.10000
    341.51,  2742.80000,  1033.30000
    341.99,  2736.90000,  1046.70000
    342.47,  2746.20000,  1046.30000
    342.95,  2746.60000,  1043.40000
    343.43,  2744.30000,  1045.60000
    343.91,  2739.30000,  1045.90000
    344.39,  2710.80000,  1051.60000
    344.87,  2692.50000,  1060.10000
    345.35,  2707.10000,  1057.40000
    345.84,  2724.40000,  1058.80000
    346.32,  2774.90000,  1046.10000
    346.80,  2793.60000,  1038.90000
    347.28,  2785.40000,  1041.10000
    347.76,  2756.60000,  1038.40000
    348.24,  2750.70000,  1042.60000
    348.72,  2768.40000,  1054.50000
    349.20,  2790.60000,  1057.70000
    349.68,  2775.10000,  1053.80000
    350.16,  2749.30000,  1050.10000
    350.64,  2706.60000,  1043.80000
    351.12,  2693.40000,  1039.60000
    351.60,  2750.70000,  1030.00000
    352.08,  2792.60000,  1025.40000
    352.56,  2817.10000,  1023.50000
    353.04,  2811.60000,  1035.40000
    353.53,  2786.40000,  1048.60000
    354.01,  2758.90000,  1055.20000
    354.49,  2772.90000,  1047.10000
    354.97,  2774.30000,  1034.60000
    355.45,  2777.00000,  1029.20000
    355.93,  2749.50000,  1031.50000
    356.41,  2763.10000,  1032.80000
    356.89,  2748.30000,  1034.80000
    357.37,  2756.20000,  1049.50000
    357.85,  2734.20000,  1044.70000
    358.33,  2722.60000,  1048.80000
    358.81,  2697.70000,  1047.70000
    359.29,  2711.60000,  1042.80000
    359.77,  2729.00000,  1047.90000
    360.25,  2750.90000,  1059.50000
    360.73,  2748.90000,  1053.00000
    361.21,  2741.50000,  1051.30000
    361.69,  2745.50000,  1056.70000
    362.17,  2748.20000,  1051.10000
    362.65,  2761.00000,  1048.80000
    363.13,  2766.60000,  1050.00000
    363.61,  2772.60000,  1058.50000
    364.09,  2741.40000,  1070.40000
    364.57,  2738.00000,  1073.90000
    365.05,  2744.60000,  1065.40000
    365.53,  2732.20000,  1053.60000
    366.01,  2751.60000,  1039.60000
    366.49,  2786.00000,  1044.60000
    366.97,  2741.60000,  1052.90000
    367.45,  2756.30000,  1053.40000
    367.93,  2781.80000,  1059.50000
    368.41,  2770.40000,  1066.00000
    368.89,  2775.30000,  1059.50000
    369.37,  2778.40000,  1059.60000
    369.85,  2718.70000,  1056.40000
    370.33,  2735.10000,  1058.90000
    370.80,  2748.50000,  1069.00000
    371.28,  2757.50000,  1063.10000
    371.76,  2738.00000,  1063.20000
    372.24,  2725.70000,  1053.70000
    372.72,  2723.70000,  1051.10000
    373.20,  2743.60000,  1051.00000
    373.68,  2765.70000,  1066.40000
    374.16,  2786.30000,  1066.70000
    374.64,  2757.30000,  1076.40000
    375.12,  2730.30000,  1084.80000
    375.60,  2758.60000,  1096.10000
    376.08,  2738.10000,  1102.00000
    376.56,  2736.00000,  1105.80000
    377.04,  2740.80000,  1096.00000
    377.52,  2746.70000,  1090.00000
    377.99,  2743.10000,  1086.90000
    378.47,  2768.20000,  1091.30000
    378.95,  2748.80000,  1099.50000
    379.43,  2761.50000,  1100.60000
    379.91,  2765.90000,  1094.20000
    380.39,  2809.80000,  1098.00000
    380.87,  2832.80000,  1098.10000
    381.35,  2822.50000,  1106.00000
    381.83,  2798.40000,  1110.00000
    382.31,  2763.80000,  1106.40000
    382.79,  2728.10000,  1093.80000
    383.26,  2747.90000,  1083.00000
    383.74,  2744.90000,  1088.80000
    384.22,  2739.30000,  1106.40000
    384.70,  2736.90000,  1119.90000
    385.18,  2707.00000,  1120.80000
    385.66,  2719.60000,  1113.40000
    386.14,  2735.20000,  1109.40000
    386.62,  2750.10000,  1114.60000
    387.09,  2767.00000,  1125.80000
    387.57,  2773.50000,  1124.70000
    388.05,  2763.00000,  1123.30000
    388.53,  2765.90000,  1118.40000
    389.01,  2764.50000,  1126.50000
    389.49,  2777.40000,  1141.10000
    389.97,  2771.20000,  1152.70000
    390.44,  2764.40000,  1147.70000
    390.92,  2747.10000,  1140.70000
    391.40,  2737.20000,  1124.90000
    391.88,  2734.60000,  1116.90000
    392.36,  2739.40000,  1120.30000
    392.84,  2746.40000,  1122.00000
    393.32,  2755.80000,  1131.00000
    393.79,  2743.70000,  1133.90000
    394.27,  2794.50000,  1141.60000
    394.75,  2796.40000,  1140.80000
    395.23,  2796.70000,  1135.60000
    395.71,  2783.50000,  1124.80000
    396.18,  2774.50000,  1129.10000
    396.66,  2772.60000,  1137.60000
    397.14,  2807.30000,  1143.90000
    397.62,  2774.20000,  1142.20000
    398.10,  2773.00000,  1138.30000
    398.58,  2757.50000,  1131.00000
    399.05,  2769.00000,  1124.60000
    399.53,  2783.20000,  1127.80000
    400.01,  2781.40000,  1126.80000
    400.49,  2753.80000,  1127.60000
    400.97,  2737.80000,  1129.50000
    401.44,  2703.10000,  1122.80000
    401.92,  2724.40000,  1119.20000
    402.40,  2727.40000,  1116.80000
    402.88,  2751.70000,  1125.20000
    403.36,  2762.20000,  1126.80000
    403.83,  2784.90000,  1112.80000
    404.31,  2753.70000,  1093.10000
    404.79,  2761.10000,  1090.40000
    405.27,  2743.00000,  1086.60000
    405.74,  2730.50000,  1099.50000
    406.22,  2753.10000,  1099.10000
    406.70,  2780.10000,  1092.40000
    407.18,  2760.70000,  1093.50000
    407.65,  2748.30000,  1093.50000
    408.13,  2721.50000,  1084.70000
    408.61,  2722.30000,  1084.00000
    409.09,  2748.70000,  1072.90000
    409.56,  2758.10000,  1071.70000
    410.04,  2767.30000,  1080.60000
    410.52,  2759.70000,  1082.10000
    411.00,  2732.00000,  1073.90000
    411.47,  2720.10000,  1074.80000
    411.95,  2708.30000,  1064.90000
    412.43,  2709.80000,  1064.30000
    412.91,  2713.70000,  1067.50000
    413.38,  2735.70000,  1059.80000
    413.86,  2754.50000,  1044.00000
    414.34,  2756.10000,  1041.00000
    414.82,  2761.30000,  1036.20000
    415.29,  2754.90000,  1038.70000
    415.77,  2760.30000,  1042.90000
    416.25,  2763.80000,  1044.10000
    416.72,  2766.00000,  1038.60000
    417.20,  2752.20000,  1048.40000
    417.68,  2713.60000,  1050.90000
    418.16,  2698.20000,  1045.50000
    418.63,  2724.70000,  1038.70000
    419.11,  2729.30000,  1035.80000
    419.59,  2746.70000,  1019.90000
    420.06,  2725.10000,  1016.20000
    420.54,  2696.70000,  1018.70000
    421.02,  2715.80000,  1022.70000
    421.50,  2742.30000,  1029.40000
    421.97,  2747.30000,  1026.30000
    422.45,  2741.30000,  1019.40000
    422.93,  2720.80000,  1015.90000
    423.40,  2701.00000,  1015.60000
    423.88,  2702.60000,  1024.30000
    424.36,  2709.70000,  1032.90000
    424.83,  2723.70000,  1023.40000
    425.31,  2744.80000,  1020.80000
    425.79,  2795.10000,  1013.80000
    426.26,  2832.40000,  1005.90000
    426.74,  2810.60000,  1005.40000
    427.22,  2791.20000,  1005.30000
    427.69,  2768.30000,  1013.50000
    428.17,  2742.20000,  1020.00000
    428.65,  2727.90000,  1019.80000
    429.12,  2764.40000,  1012.80000
    429.60,  2751.10000,   999.10000
    430.08,  2765.90000,   991.30000
    430.55,  2776.90000,   995.30000
    431.03,  2776.20000,   984.30000
    431.50,  2766.30000,   987.10000
    431.98,  2763.70000,   987.30000
    432.46,  2761.30000,   994.30000
    432.93,  2738.90000,   996.60000
    433.41,  2716.30000,  1003.30000
    433.89,  2709.30000,   998.80000
    434.36,  2720.90000,   991.20000
    434.84,  2725.60000,   988.40000
    435.31,  2755.20000,   982.00000
    435.79,  2755.30000,   971.50000
    436.27,  2739.50000,   979.30000
    436.74,  2733.60000,   980.40000
    437.22,  2740.80000,   979.60000
    437.70,  2738.60000,   985.20000
    438.17,  2735.20000,   982.20000
    438.65,  2728.40000,   982.20000
    439.12,  2728.10000,   990.80000
    439.60,  2732.40000,   985.60000
    440.08,  2745.60000,   991.30000
    440.55,  2733.20000,   988.20000
    441.03,  2740.80000,   988.90000
    441.50,  2735.30000,   986.90000
    441.98,  2748.20000,   994.30000
    442.45,  2744.80000,   991.70000
    442.93,  2745.10000,   990.10000
    443.41,  2732.10000,   985.20000
    443.88,  2730.90000,   987.10000
    444.36,  2721.00000,   987.80000
    444.83,  2723.00000,   991.40000
    445.31,  2729.60000,   985.70000
    445.78,  2707.70000,   985.80000
    446.26,  2710.70000,   983.70000
    446.74,  2702.50000,   982.60000
    447.21,  2726.60000,   979.50000
    447.69,  2745.10000,   982.00000
    448.16,  2774.10000,   981.30000
    448.64,  2748.00000,   983.80000
    449.11,  2735.90000,   986.40000
    449.59,  2732.50000,   985.10000
    450.06,  2734.10000,   978.70000
    450.54,  2732.40000,   981.80000
    451.02,  2764.20000,   984.70000
    451.49,  2774.00000,   977.50000
    451.97,  2772.60000,   979.90000
    452.44,  2762.50000,   983.90000
    452.92,  2743.70000,   987.00000
    453.39,  2717.20000,  1000.10000
    453.87,  2730.00000,  1000.20000
    454.34,  2739.30000,   988.80000
    454.82,  2746.00000,   979.60000
    455.29,  2758.10000,   977.40000
    455.77,  2767.20000,   974.00000
    456.24,  2738.30000,   984.70000
    456.72,  2712.30000,   992.90000
    457.19,  2699.30000,   995.40000
    457.67,  2710.70000,   994.00000
    458.14,  2743.20000,   994.60000
    458.62,  2754.80000,   986.60000
    459.09,  2753.00000,   977.40000
    459.57,  2728.60000,   973.60000
    460.04,  2733.20000,   972.60000
    460.52,  2735.20000,   979.90000
    460.99,  2727.50000,   985.70000
    461.47,  2719.30000,   984.60000
    461.94,  2696.10000,   978.40000
    462.42,  2691.20000,   975.10000
    462.89,  2717.40000,   976.50000
    463.37,  2740.30000,   975.00000
    463.84,  2752.00000,   965.40000
    464.32,  2756.10000,   957.70000
    464.79,  2744.40000,   964.00000
    465.26,  2742.20000,   973.30000
    465.74,  2733.70000,   974.10000
    466.21,  2751.50000,   977.10000
    466.69,  2762.20000,   982.90000
    467.16,  2760.30000,   987.10000
    467.64,  2740.70000,   998.80000
    468.11,  2727.90000,  1003.10000
    468.59,  2731.80000,   986.30000
    469.06,  2746.80000,   975.80000
    469.54,  2771.70000,   969.70000
    470.01,  2772.40000,   964.90000
    470.48,  2728.80000,   971.80000
    470.96,  2743.90000,   986.70000
    471.43,  2773.60000,   993.30000
    471.91,  2794.60000,   994.60000
    472.38,  2826.10000,   994.10000
    472.86,  2793.60000,   993.00000
    473.33,  2727.90000,   990.10000
    473.80,  2715.90000,   983.00000
    474.28,  2719.40000,   985.90000
    474.75,  2732.20000,   985.60000
    475.23,  2777.00000,   983.40000
    475.70,  2778.50000,   985.50000
    476.17,  2755.20000,   989.40000
    476.65,  2754.60000,   986.70000
    477.12,  2758.60000,   987.90000
    477.60,  2722.70000,   986.10000
    478.07,  2728.10000,   982.50000
    478.54,  2733.70000,   985.30000
    479.02,  2739.00000,   988.20000
    479.49,  2768.10000,   982.50000
    479.97,  2779.50000,   976.30000
    480.44,  2761.50000,   979.80000
    480.91,  2733.10000,   979.20000
    481.39,  2721.20000,   976.00000
    481.86,  2726.60000,   970.00000
    482.34,  2713.40000,   966.20000
    482.81,  2730.90000,   967.10000
    483.28,  2749.80000,   985.00000
    483.76,  2733.70000,   987.10000
    484.23,  2752.80000,   988.00000
    484.70,  2747.10000,   977.40000
    485.18,  2733.60000,   972.80000
    485.65,  2742.90000,   969.60000
    486.12,  2743.60000,   974.70000
    486.60,  2721.20000,   974.50000
    487.07,  2726.10000,   985.80000
    487.55,  2756.40000,   975.50000
    488.02,  2776.80000,   981.10000
    488.49,  2779.80000,   980.70000
    488.97,  2793.30000,   979.70000
    489.44,  2784.50000,   973.30000
    489.91,  2744.60000,   978.90000
    490.39,  2731.80000,   985.20000
    490.86,  2686.50000,   996.90000
    491.33,  2648.80000,   998.00000
    491.81,  2690.70000,   993.40000
    492.28,  2741.70000,   976.40000
    492.75,  2740.40000,   969.00000
    493.23,  2794.60000,   972.70000
    493.70,  2814.20000,   968.30000
    494.17,  2806.70000,   973.90000
    494.64,  2799.20000,   968.70000
    495.12,  2759.70000,   965.80000
    495.59,  2752.70000,   962.80000
    496.06,  2785.60000,   965.60000
    496.54,  2801.50000,   962.90000
    497.01,  2785.00000,   963.70000
    497.48,  2768.80000,   963.80000
    497.96,  2736.90000,   970.30000
    498.43,  2762.30000,   972.50000
    498.90,  2767.20000,   971.20000
    499.37,  2785.80000,   982.80000
    499.85,  2761.20000,   973.50000
    500.32,  2760.30000,   974.80000
    500.79,  2742.70000,   967.70000
    501.27,  2749.70000,   962.40000
    501.74,  2748.50000,   958.70000
    502.21,  2742.50000,   975.70000
    502.68,  2731.10000,   977.40000
    503.16,  2716.50000,   989.80000
    503.63,  2707.90000,   989.70000
    504.10,  2726.40000,   978.90000
    504.57,  2722.80000,   974.00000
    505.05,  2739.90000,   970.10000
    505.52,  2763.50000,   962.30000
    505.99,  2751.00000,   962.80000
    506.46,  2748.00000,   955.60000
    506.94,  2738.40000,   953.60000
    507.41,  2723.30000,   957.90000
    507.88,  2727.60000,   965.50000
    508.35,  2720.50000,   972.60000
    508.83,  2708.10000,   969.80000
    509.30,  2739.60000,   964.60000
    509.77,  2746.50000,   966.10000
    510.24,  2751.70000,   963.00000
    510.72,  2736.90000,   965.70000
    511.19,  2722.00000,   970.50000
    511.66,  2721.40000,   964.00000
    512.13,  2745.80000,   970.10000
    512.60,  2733.70000,   963.70000
    513.08,  2726.60000,   959.60000
    513.55,  2712.90000,   963.60000
    514.02,  2695.20000,   966.80000
    514.49,  2701.30000,   962.40000
    514.97,  2717.80000,   955.90000
    515.44,  2733.70000,   947.70000
    515.91,  2731.50000,   949.70000
    516.38,  2729.50000,   954.70000
    516.85,  2696.40000,   960.10000
    517.33,  2684.20000,   956.80000
    517.80,  2684.20000,   960.50000
    518.27,  2704.10000,   967.70000
    518.74,  2737.40000,   982.70000
    519.21,  2769.70000,   976.00000
    519.68,  2759.40000,   964.80000
    520.16,  2738.70000,   942.50000
    520.63,  2716.50000,   937.80000
    521.10,  2701.70000,   936.60000
    521.57,  2721.90000,   948.80000
    522.04,  2736.60000,   953.20000
    522.52,  2734.80000,   964.20000
    522.99,  2721.80000,   964.20000
    523.46,  2732.30000,   970.50000
    523.93,  2735.20000,   969.40000
    524.40,  2765.70000,   965.70000
    524.87,  2759.60000,   966.10000
    525.34,  2749.80000,   962.30000
    525.82,  2738.40000,   954.30000
    526.29,  2742.90000,   952.90000
    526.76,  2738.60000,   952.60000
    527.23,  2762.40000,   942.90000
    527.70,  2738.30000,   959.50000
    528.17,  2739.30000,   956.70000
    528.64,  2733.10000,   955.60000
    529.12,  2738.60000,   953.90000
    529.59,  2737.70000,   954.20000
    530.06,  2747.80000,   941.70000
    530.53,  2773.70000,   961.00000
    531.00,  2749.00000,   961.60000
    531.47,  2699.10000,   967.30000
    531.94,  2687.90000,   967.00000
    532.41,  2685.70000,   963.70000
    532.89,  2709.60000,   957.10000
    533.36,  2774.20000,   965.70000
    533.83,  2758.80000,   967.50000
    534.30,  2733.90000,   984.30000
    534.77,  2739.00000,   997.60000
    535.24,  2749.60000,   998.30000
    535.71,  2743.90000,  1000.90000
    536.18,  2756.20000,   996.10000
    536.65,  2745.80000,   984.90000
    537.13,  2719.40000,   982.50000
    537.60,  2700.20000,   977.90000
    538.07,  2708.40000,   970.60000
    538.54,  2695.60000,   975.70000
    539.01,  2712.20000,   983.00000
    539.48,  2751.40000,   978.90000
    539.95,  2767.80000,   977.20000
    540.42,  2771.60000,   981.30000
    540.89,  2759.10000,   988.30000
    541.36,  2733.80000,   993.10000
    541.83,  2728.70000,   998.90000
    542.30,  2733.20000,   993.30000
    542.77,  2741.90000,   993.80000
    543.25,  2761.50000,  1004.20000
    543.72,  2758.10000,  1019.00000
    544.19,  2758.10000,  1023.80000
    544.66,  2742.90000,  1015.20000
    545.13,  2728.10000,  1018.90000
    545.60,  2710.70000,  1014.10000
    546.07,  2732.00000,  1020.80000
    546.54,  2740.90000,  1016.10000
    547.01,  2750.10000,  1018.80000
    547.48,  2751.50000,  1018.40000
    547.95,  2734.70000,  1041.30000
    548.42,  2715.70000,  1043.00000
    548.89,  2746.70000,  1046.60000
    549.36,  2742.20000,  1030.50000
    549.83,  2731.40000,  1032.20000
    550.30,  2783.80000,  1028.70000
    550.77,  2782.80000,  1034.70000
    551.24,  2785.80000,  1037.00000
    551.71,  2798.80000,  1042.40000
    552.18,  2762.50000,  1046.60000
    552.65,  2703.40000,  1056.90000
    553.12,  2731.30000,  1053.60000
    553.59,  2732.10000,  1060.20000
    554.06,  2732.60000,  1066.20000
    554.53,  2741.30000,  1070.00000
    555.00,  2730.90000,  1065.60000
    555.47,  2721.80000,  1058.30000
    555.94,  2725.30000,  1045.90000
    556.41,  2726.30000,  1050.20000
    556.88,  2706.60000,  1055.80000
    557.35,  2703.30000,  1061.20000
    557.82,  2696.60000,  1060.70000
    558.29,  2712.00000,  1056.00000
    558.76,  2752.30000,  1058.20000
    559.23,  2766.40000,  1071.90000
    559.70,  2763.50000,  1085.00000
    560.17,  2750.30000,  1090.20000
    560.64,  2740.90000,  1084.20000
    561.11,  2731.70000,  1070.10000
    561.58,  2761.40000,  1061.70000
    562.05,  2744.30000,  1068.10000
    562.52,  2750.20000,  1077.90000
    562.99,  2740.60000,  1082.00000
    563.46,  2749.80000,  1088.10000
    563.93,  2741.20000,  1090.20000
    564.40,  2749.60000,  1088.70000
    564.87,  2751.00000,  1090.10000
    565.34,  2770.30000,  1095.10000
    565.81,  2758.60000,  1087.00000
    566.28,  2753.70000,  1086.50000
    566.74,  2730.90000,  1084.70000
    567.21,  2717.60000,  1082.00000
    567.68,  2734.90000,  1086.00000
    568.15,  2726.40000,  1100.10000
    568.62,  2724.70000,  1090.00000
    569.09,  2725.80000,  1084.60000
    569.56,  2722.70000,  1084.60000
    570.03,  2721.80000,  1079.40000
    570.50,  2760.80000,  1087.90000
    570.97,  2750.00000,  1094.50000
    571.44,  2746.70000,  1083.20000
    571.91,  2751.20000,  1080.60000
    572.38,  2740.40000,  1089.80000
    572.84,  2723.20000,  1088.00000
    573.31,  2737.70000,  1088.80000
    573.78,  2729.50000,  1089.70000
    574.25,  2720.40000,  1085.20000
    574.72,  2739.40000,  1085.90000
    575.19,  2725.50000,  1092.10000
    575.66,  2723.90000,  1092.10000
    576.13,  2718.90000,  1085.60000
    576.60,  2727.90000,  1089.20000
    577.07,  2751.10000,  1084.50000
    577.53,  2776.60000,  1077.20000
    578.00,  2765.80000,  1076.60000
    578.47,  2756.20000,  1082.50000
    578.94,  2731.90000,  1082.20000
    579.41,  2709.30000,  1088.00000
    579.88,  2730.90000,  1086.00000
    580.35,  2740.70000,  1074.80000
    580.82,  2744.60000,  1081.00000
    581.28,  2757.70000,  1084.70000
    581.75,  2754.50000,  1092.10000
    582.22,  2744.10000,  1098.70000
    582.69,  2749.10000,  1101.80000
    583.16,  2747.70000,  1093.90000
    583.63,  2733.70000,  1095.00000
    584.10,  2760.30000,  1081.50000
    584.56,  2776.20000,  1076.60000
    585.03,  2772.40000,  1075.10000
    585.50,  2759.60000,  1076.00000
    585.97,  2731.40000,  1081.50000
    586.44,  2720.70000,  1073.80000
    586.91,  2738.80000,  1069.70000
    587.37,  2746.70000,  1062.30000
    587.84,  2738.90000,  1063.40000
    588.31,  2724.90000,  1075.10000
    588.78,  2692.80000,  1088.90000
    589.25,  2718.20000,  1087.60000
    589.72,  2710.00000,  1093.10000
    590.18,  2742.70000,  1084.80000
    590.65,  2769.40000,  1080.60000
    591.12,  2757.80000,  1074.40000
    591.59,  2754.50000,  1070.90000
    592.06,  2740.20000,  1066.20000
    592.52,  2694.20000,  1067.20000
    592.99,  2713.60000,  1077.20000
    593.46,  2711.80000,  1082.40000
    593.93,  2676.10000,  1078.40000
    594.40,  2700.80000,  1077.90000
    594.86,  2724.20000,  1069.40000
    595.33,  2729.20000,  1066.30000
    595.80,  2752.10000,  1064.10000
    596.27,  2761.20000,  1055.60000
    596.74,  2740.80000,  1064.10000
    597.20,  2731.70000,  1074.40000
    597.67,  2743.70000,  1071.80000
    598.14,  2718.60000,  1074.70000
    598.61,  2717.80000,  1061.20000
    599.07,  2725.00000,  1047.00000
    599.54,  2716.40000,  1045.00000
    600.01,  2707.20000,  1050.50000
    600.48,  2770.70000,  1038.10000
    600.95,  2796.30000,  1037.40000
    601.41,  2800.20000,  1032.80000
    601.88,  2778.10000,  1035.80000
    602.35,  2714.00000,  1045.70000
    602.82,  2657.90000,  1056.90000
    603.28,  2681.60000,  1048.80000
    603.75,  2685.20000,  1043.50000
    604.22,  2710.60000,  1034.20000
    604.69,  2731.40000,  1028.50000
    605.15,  2737.50000,  1031.60000
    605.62,  2729.30000,  1027.90000
    606.09,  2731.40000,  1029.20000
    606.56,  2711.60000,  1027.60000
    607.02,  2716.00000,  1019.70000
    607.49,  2710.40000,  1019.70000
    607.96,  2727.20000,  1022.70000
    608.42,  2724.20000,  1016.50000
    608.89,  2771.30000,  1028.50000
    609.36,  2779.70000,  1024.00000
    609.83,  2770.20000,  1015.50000
    610.29,  2740.90000,  1016.20000
    610.76,  2714.80000,  1016.60000
    611.23,  2705.00000,  1005.80000
    611.69,  2730.90000,  1005.20000
    612.16,  2732.70000,   995.50000
    612.63,  2733.60000,   993.30000
    613.10,  2716.50000,   998.30000
    613.56,  2696.60000,  1009.10000
    614.03,  2709.40000,  1014.60000
    614.50,  2717.90000,  1007.20000
    614.96,  2730.40000,   994.00000
    615.43,  2739.70000,   983.30000
    615.90,  2750.40000,   979.10000
    616.36,  2750.10000,   984.80000
    616.83,  2730.20000,   994.40000
    617.30,  2720.70000,   995.60000
    617.76,  2693.30000,   995.70000
    618.23,  2680.40000,   994.60000
    618.70,  2679.50000,   993.80000
    619.16,  2698.70000,   990.90000
    619.63,  2695.60000,   983.20000
    620.10,  2704.00000,   970.60000
    620.56,  2700.00000,   961.10000
    621.03,  2726.80000,   963.00000
    621.50,  2735.40000,   963.30000
    621.96,  2739.70000,   974.80000
    622.43,  2740.10000,   971.40000
    622.90,  2743.50000,   964.10000
    623.36,  2745.10000,   955.00000
    623.83,  2750.90000,   948.00000
    624.30,  2743.10000,   944.60000
    624.76,  2740.20000,   943.80000
    625.23,  2756.50000,   933.40000
    625.70,  2770.40000,   934.10000
    626.16,  2773.10000,   933.10000
    626.63,  2738.70000,   941.10000
    627.09,  2720.80000,   957.00000
    627.56,  2726.20000,   961.20000
    628.03,  2717.90000,   956.10000
    628.49,  2720.20000,   953.30000
    628.96,  2702.20000,   950.40000
    629.43,  2699.10000,   948.80000
    629.89,  2700.20000,   944.00000
    630.36,  2717.40000,   949.20000
    630.82,  2713.90000,   935.10000
    631.29,  2723.50000,   925.10000
    631.76,  2706.40000,   928.90000
    632.22,  2698.40000,   925.90000
    632.69,  2701.80000,   915.20000
    633.15,  2718.90000,   920.70000
    633.62,  2743.10000,   917.80000
    634.09,  2758.50000,   916.70000
    634.55,  2757.40000,   926.70000
    635.02,  2730.60000,   926.00000
    635.48,  2719.50000,   923.00000
    635.95,  2710.50000,   919.20000
    636.42,  2717.70000,   917.70000
    636.88,  2706.90000,   911.50000
    637.35,  2709.60000,   910.50000
    637.81,  2726.00000,   901.40000
    638.28,  2730.20000,   905.30000
    638.74,  2746.10000,   901.50000
    639.21,  2751.30000,   909.90000
    639.68,  2725.10000,   917.10000
    640.14,  2695.20000,   921.70000
    640.61,  2702.60000,   922.60000
    641.07,  2679.30000,   918.60000
    641.54,  2706.50000,   910.30000
    642.00,  2727.30000,   906.00000
    642.47,  2744.40000,   899.00000
    642.93,  2748.00000,   887.00000
    643.40,  2743.20000,   890.40000
    643.87,  2720.30000,   890.10000
    644.33,  2724.80000,   897.60000
    644.80,  2727.90000,   895.50000
    645.26,  2709.20000,   906.90000
    645.73,  2707.00000,   901.70000
    646.19,  2699.90000,   903.30000
    646.66,  2706.40000,   901.60000
    647.12,  2698.30000,   898.50000
    647.59,  2711.00000,   890.80000
    648.05,  2715.60000,   900.60000
    648.52,  2706.50000,   900.20000
    648.98,  2700.20000,   903.90000
    649.45,  2694.10000,   899.10000
    649.91,  2667.20000,   901.80000
    650.38,  2672.60000,   906.70000
    650.84,  2722.20000,   906.10000
    651.31,  2713.70000,   903.10000
    651.77,  2718.10000,   889.70000
    652.24,  2699.40000,   884.70000
    652.70,  2678.90000,   890.70000
    653.17,  2670.50000,   895.70000
    653.63,  2704.20000,   900.00000
    654.10,  2695.20000,   893.60000
    654.56,  2710.50000,   879.40000
    655.03,  2700.70000,   885.00000
    655.49,  2711.00000,   879.50000
    655.96,  2712.20000,   876.60000
    656.42,  2703.20000,   885.20000
    656.89,  2689.60000,   883.00000
    657.35,  2735.40000,   896.70000
    657.82,  2769.20000,   906.70000
    658.28,  2802.20000,   901.00000
    658.75,  2817.90000,   882.80000
    659.21,  2774.00000,   872.30000
    659.68,  2753.60000,   852.80000
    660.14,  2746.10000,   855.40000
    660.61,  2711.00000,   858.20000
    661.07,  2739.50000,   862.80000
    661.53,  2754.20000,   866.40000
    662.00,  2773.60000,   863.40000
    662.46,  2774.70000,   856.30000
    662.93,  2753.60000,   860.00000
    663.39,  2721.30000,   856.30000
    663.86,  2749.00000,   850.30000
    664.32,  2750.70000,   847.30000
    664.79,  2774.90000,   840.20000
    665.25,  2754.80000,   846.90000
    665.71,  2725.10000,   862.60000
    666.18,  2688.10000,   863.70000
    666.64,  2710.40000,   853.40000
    667.11,  2713.50000,   842.00000
    667.57,  2729.70000,   847.40000
    668.04,  2745.60000,   843.20000
    668.50,  2740.70000,   836.40000
    668.96,  2719.30000,   823.90000
    669.43,  2741.00000,   821.20000
    669.89,  2715.90000,   827.80000
    670.36,  2688.30000,   848.10000
    670.82,  2683.00000,   848.20000
    671.28,  2694.50000,   845.30000
    671.75,  2702.80000,   833.20000
    672.21,  2728.40000,   836.60000
    672.68,  2729.80000,   836.90000
    673.14,  2734.40000,   844.50000
    673.60,  2757.30000,   833.50000
    674.07,  2745.60000,   824.00000
    674.53,  2722.40000,   814.20000
    675.00,  2710.80000,   808.70000
    675.46,  2692.70000,   811.50000
    675.92,  2687.70000,   816.80000
    676.39,  2731.40000,   815.30000
    676.85,  2734.90000,   806.70000
    677.31,  2739.00000,   818.00000
    677.78,  2748.30000,   813.50000
    678.24,  2735.20000,   814.60000
    678.70,  2715.70000,   809.80000
    679.17,  2706.00000,   808.20000
    679.63,  2680.10000,   800.50000
    680.10,  2669.00000,   806.00000
    680.56,  2693.10000,   801.10000
    681.02,  2700.40000,   792.70000
    681.49,  2736.80000,   783.20000
    681.95,  2739.90000,   776.10000
    682.41,  2727.10000,   785.50000
    682.88,  2714.20000,   794.70000
    683.34,  2706.80000,   805.70000
    683.80,  2686.80000,   807.60000
    684.27,  2702.90000,   805.40000
    684.73,  2705.00000,   800.10000
    685.19,  2716.90000,   802.60000
    685.66,  2741.60000,   804.90000
    686.12,  2745.30000,   792.10000
    686.58,  2772.40000,   778.10000
    687.05,  2770.60000,   767.80000
    687.51,  2755.10000,   766.70000
    687.97,  2739.30000,   769.50000
    688.44,  2739.60000,   775.50000
    688.90,  2732.50000,   777.10000
    689.36,  2739.40000,   774.30000
    689.83,  2736.30000,   773.70000
    690.29,  2738.00000,   786.20000
    690.75,  2750.00000,   785.60000
    691.21,  2758.70000,   785.30000
    691.68,  2748.00000,   782.50000
    692.14,  2721.20000,   776.80000
    692.60,  2732.00000,   767.10000
    693.07,  2716.10000,   765.50000
    693.53,  2732.00000,   761.10000
    693.99,  2741.60000,   765.50000
    694.45,  2736.60000,   770.10000
    694.92,  2748.70000,   774.70000
    695.38,  2766.10000,   768.90000
    695.84,  2757.20000,   760.50000
    696.31,  2745.50000,   757.00000
    696.77,  2759.30000,   752.30000
    697.23,  2745.30000,   761.50000
    697.69,  2751.40000,   753.40000
    698.16,  2733.10000,   754.50000
    698.62,  2719.60000,   750.40000
    699.08,  2694.50000,   751.30000
    699.54,  2699.30000,   754.30000
    700.01,  2682.50000,   762.60000
    700.47,  2673.90000,   751.70000
    700.93,  2673.40000,   752.10000
    701.39,  2687.60000,   744.50000
    701.86,  2697.70000,   751.30000
    702.32,  2701.90000,   757.00000
    702.78,  2712.30000,   754.40000
    703.24,  2718.70000,   736.40000
    703.71,  2764.70000,   693.40000
    704.17,  2799.20000,   667.90000
    704.63,  2787.20000,   680.20000
    705.09,  2758.20000,   697.30000
    705.56,  2759.30000,   729.10000
    706.02,  2729.70000,   758.00000
    706.48,  2713.90000,   755.50000
    706.94,  2709.10000,   756.30000
    707.40,  2686.80000,   750.20000
    707.87,  2688.60000,   734.20000
    708.33,  2706.30000,   729.00000
    708.79,  2689.30000,   733.30000
    709.25,  2660.70000,   736.00000
    709.72,  2676.10000,   737.20000
    710.18,  2694.90000,   734.10000
    710.64,  2702.10000,   731.00000
    711.10,  2700.20000,   728.60000
    711.56,  2705.10000,   729.00000
    712.03,  2724.60000,   721.70000
    712.49,  2753.00000,   727.90000
    712.95,  2772.70000,   728.00000
    713.41,  2755.30000,   730.00000
    713.87,  2743.50000,   730.40000
    714.33,  2735.80000,   729.60000
    714.80,  2723.40000,   732.80000
    715.26,  2677.50000,   744.10000
    715.72,  2673.90000,   738.20000
    716.18,  2671.10000,   736.70000
    716.64,  2694.40000,   723.00000
    717.11,  2704.20000,   706.50000
    717.57,  2710.20000,   694.00000
    718.03,  2676.90000,   696.20000
    718.49,  2688.00000,   702.20000
    718.95,  2733.00000,   709.20000
    719.41,  2750.60000,   701.80000
    719.87,  2716.00000,   707.60000
    720.34,  2713.20000,   705.40000
    720.80,  2696.80000,   714.50000
    721.26,  2690.80000,   720.80000
    721.72,  2724.90000,   713.40000
    722.18,  2714.20000,   702.00000
    722.64,  2675.60000,   708.80000
    723.10,  2684.70000,   713.20000
    723.57,  2688.30000,   714.20000
    724.03,  2691.60000,   719.90000
    724.49,  2695.00000,   717.00000
    724.95,  2661.40000,   708.60000
    725.41,  2722.10000,   706.30000
    725.87,  2773.80000,   703.30000
    726.33,  2795.00000,   701.50000
    726.80,  2805.70000,   702.70000
    727.26,  2762.60000,   712.60000
    727.72,  2683.80000,   709.00000
    728.18,  2699.10000,   704.10000
    728.64,  2688.20000,   697.60000
    729.10,  2697.50000,   692.50000
    729.56,  2720.30000,   687.00000
    730.02,  2735.70000,   698.00000
    730.48,  2733.70000,   698.90000
    730.94,  2718.80000,   701.80000
    731.41,  2712.40000,   702.60000
    731.87,  2690.70000,   699.20000
    732.33,  2676.70000,   696.60000
    732.79,  2706.20000,   697.00000
    733.25,  2711.80000,   692.00000
    733.71,  2720.50000,   692.30000
    734.17,  2738.40000,   691.90000
    734.63,  2711.60000,   693.10000
    735.09,  2692.30000,   687.40000
    735.55,  2692.20000,   683.80000
    736.01,  2677.20000,   684.10000
    736.47,  2687.10000,   691.40000
    736.94,  2690.50000,   702.50000
    737.40,  2699.00000,   713.30000
    737.86,  2699.90000,   709.40000
    738.32,  2713.00000,   705.40000
    738.78,  2721.10000,   698.90000
    739.24,  2715.30000,   700.70000
    739.70,  2713.20000,   697.80000
    740.16,  2736.10000,   694.60000
    740.62,  2746.80000,   682.90000
    741.08,  2760.30000,   687.00000
    741.54,  2742.60000,   694.30000
    742.00,  2719.90000,   705.60000
    742.46,  2689.40000,   713.90000
    742.92,  2665.50000,   710.40000
    743.38,  2668.70000,   693.90000
    743.84,  2671.00000,   684.80000
    744.30,  2686.70000,   681.90000
    744.76,  2701.00000,   686.80000
    745.22,  2696.50000,   697.00000
    745.68,  2674.70000,   699.70000
    746.14,  2670.10000,   700.70000
    746.60,  2680.80000,   690.70000
    747.06,  2695.00000,   688.80000
    747.52,  2682.20000,   684.40000
    747.98,  2701.80000,   682.50000
    748.44,  2707.90000,   672.10000
    748.90,  2707.20000,   675.20000
    749.36,  2718.50000,   668.20000
    749.82,  2723.20000,   669.20000
    750.28,  2723.20000,   671.50000
    750.74,  2741.50000,   678.30000
    751.20,  2745.40000,   675.80000
    751.66,  2721.60000,   691.30000
    752.12,  2706.30000,   693.80000
    752.58,  2709.30000,   687.80000
    753.04,  2720.50000,   684.40000
    753.50,  2746.90000,   683.80000
    753.96,  2730.80000,   683.40000
    754.42,  2694.30000,   694.70000
    754.88,  2672.20000,   703.10000
    755.34,  2665.10000,   704.80000
    755.80,  2691.40000,   698.10000
    756.26,  2714.40000,   688.60000
    756.72,  2719.60000,   670.90000
    757.18,  2721.70000,   652.10000
    757.64,  2706.50000,   847.50000
    758.10,  2666.20000,   973.40000
    758.56,  2651.20000,   988.10000
    759.02,  2658.70000,   917.40000
    759.48,  2670.60000,   767.10000
    759.94,  2691.40000,   618.70000
    760.40,  2702.70000,   676.50000
    760.86,  2692.70000,   697.00000
    761.32,  2698.50000,   691.70000
    761.78,  2728.90000,   692.90000
    762.24,  2706.20000,   690.30000
    762.70,  2711.80000,   687.80000
    763.15,  2702.60000,   679.00000
    763.61,  2706.90000,   678.00000
    764.07,  2713.30000,   677.10000
    764.53,  2712.90000,   679.60000
    764.99,  2708.80000,   693.40000
    765.45,  2729.80000,   693.90000
    765.91,  2718.50000,   689.90000
    766.37,  2708.50000,   684.80000
    766.83,  2679.70000,   676.40000
    767.29,  2674.10000,   680.80000
    767.75,  2679.10000,   694.70000
    768.21,  2693.70000,   699.20000
    768.66,  2740.30000,   657.20000
    769.12,  2770.30000,   638.10000
    769.58,  2752.30000,   633.20000
    770.04,  2725.40000,   655.90000
    770.50,  2671.10000,   688.60000
    770.96,  2637.50000,   708.30000
    771.42,  2678.60000,   683.10000
    771.88,  2696.70000,   682.20000
    772.34,  2701.50000,   685.10000
    772.80,  2689.40000,   682.10000
    773.25,  2673.80000,   677.10000
    773.71,  2682.20000,   668.60000
    774.17,  2675.70000,   667.30000
    774.63,  2685.60000,   676.00000
    775.09,  2694.90000,   684.50000
    775.55,  2680.30000,   686.80000
    776.01,  2655.30000,   689.40000
    776.47,  2658.70000,   684.80000
    776.92,  2642.90000,   672.20000
    777.38,  2670.70000,   664.10000
    777.84,  2680.40000,   664.60000
    778.30,  2673.50000,   671.20000
    778.76,  2655.20000,   688.00000
    779.22,  2675.90000,   686.50000
    779.68,  2682.40000,   681.70000
    780.13,  2693.10000,   675.40000
    780.59,  2681.30000,   671.40000
    781.05,  2662.40000,   680.90000
    781.51,  2665.40000,   684.00000
    781.97,  2685.00000,   679.10000
    782.43,  2694.00000,   677.70000
    782.88,  2708.70000,   679.60000
    783.34,  2702.00000,   681.90000
    783.80,  2700.10000,   688.90000
    784.26,  2718.40000,   680.80000
    784.72,  2699.40000,   675.50000
    785.18,  2686.20000,   667.60000
    785.63,  2671.30000,   668.00000
    786.09,  2685.50000,   671.50000
    786.55,  2717.30000,   677.30000
    787.01,  2738.80000,   684.40000
    787.47,  2707.20000,   691.40000
    787.92,  2681.10000,   690.20000
    788.38,  2661.40000,   681.40000
    788.84,  2651.90000,   685.80000
    789.30,  2667.80000,   685.00000
    789.76,  2679.40000,   680.00000
    790.21,  2674.70000,   689.30000
    790.67,  2662.40000,   689.60000
    791.13,  2666.50000,   684.00000
    791.59,  2648.20000,   681.10000
    792.05,  2652.20000,   673.60000
    792.50,  2670.10000,   661.40000
    792.96,  2685.50000,   675.70000
    793.42,  2659.50000,   678.20000
    793.88,  2672.70000,   676.40000
    794.33,  2655.80000,   670.10000
    794.79,  2663.20000,   661.10000
    795.25,  2677.90000,   649.50000
    795.71,  2689.80000,   657.50000
    796.17,  2684.80000,   667.40000
    796.62,  2684.70000,   679.70000
    797.08,  2653.00000,   694.30000
    797.54,  2647.10000,   698.00000
    798.00,  2641.40000,   690.10000
    798.45,  2658.80000,   680.10000
    798.91,  2671.10000,   676.30000
    799.37,  2675.10000,   675.80000
    799.83,  2668.10000,   677.50000
    800.28,  2647.00000,   679.60000
    800.74,  2632.80000,   682.90000
    801.20,  2661.90000,   676.40000
    801.66,  2656.90000,   668.40000
    802.11,  2673.90000,   664.90000
    802.57,  2691.60000,   654.90000
    803.03,  2665.50000,   652.50000
    803.48,  2632.90000,   658.20000
    803.94,  2685.70000,   667.40000
    804.40,  2703.30000,   670.60000
    804.86,  2727.10000,   673.70000
    805.31,  2720.70000,   669.50000
    805.77,  2673.40000,   676.90000
    806.23,  2612.70000,   681.10000
    806.69,  2638.80000,   692.80000
    807.14,  2648.30000,   682.20000
    807.60,  2671.30000,   672.30000
    808.06,  2675.50000,   667.40000
    808.51,  2671.20000,   665.10000
    808.97,  2635.60000,   675.00000
    809.43,  2634.30000,   675.10000
    809.88,  2632.00000,   668.40000
    810.34,  2627.10000,   668.60000
    810.80,  2653.20000,   664.70000
    811.26,  2672.20000,   658.00000
    811.71,  2658.80000,   665.90000
    812.17,  2678.90000,   658.90000
    812.63,  2671.10000,   662.60000
    813.08,  2642.40000,   666.40000
    813.54,  2648.90000,   666.20000
    814.00,  2657.50000,   664.20000
    814.45,  2657.90000,   663.70000
    814.91,  2680.00000,   659.50000
    815.37,  2662.80000,   659.90000
    815.82,  2652.00000,   656.60000
    816.28,  2641.20000,   649.80000
    816.74,  2647.40000,   643.70000
    817.19,  2623.50000,   639.20000
    817.65,  2639.60000,   646.00000
    818.11,  2655.60000,   656.90000
    818.56,  2663.70000,   661.80000
    819.02,  2654.30000,   652.60000
    819.48,  2658.50000,   650.00000
    819.93,  2616.50000,   646.80000
    820.39,  2636.30000,   648.70000
    820.84,  2671.10000,   648.60000
    821.30,  2688.50000,   650.30000
    821.76,  2693.40000,   643.70000
    822.21,  2702.70000,   645.40000
    822.67,  2681.40000,   641.30000
    823.13,  2639.20000,   644.80000
    823.58,  2667.80000,   648.40000
    824.04,  2689.70000,   648.50000
    824.49,  2685.50000,   647.90000
    824.95,  2693.50000,   648.70000
    825.41,  2700.90000,   643.10000
    825.86,  2672.40000,   642.00000
    826.32,  2704.70000,   644.80000
    826.78,  2684.70000,   648.70000
    827.23,  2662.60000,   642.00000
    827.69,  2644.20000,   635.70000
    828.14,  2650.00000,   634.10000
    828.60,  2672.20000,   623.30000
    829.06,  2692.00000,   621.10000
    829.51,  2671.90000,   638.80000
    829.97,  2678.70000,   637.40000
    830.42,  2667.70000,   644.60000
    830.88,  2653.80000,   646.50000
    831.34,  2655.00000,   639.60000
    831.79,  2679.10000,   628.60000
    832.25,  2680.30000,   636.60000
    832.70,  2677.00000,   634.70000
    833.16,  2682.50000,   636.80000
    833.61,  2674.50000,   633.30000
    834.07,  2674.80000,   625.50000
    834.53,  2677.30000,   620.40000
    834.98,  2668.00000,   619.50000
    835.44,  2640.30000,   629.90000
    835.89,  2647.60000,   637.90000
    836.35,  2663.10000,   634.90000
    836.80,  2691.50000,   627.80000
    837.26,  2674.30000,   633.10000
    837.71,  2660.70000,   617.10000
    838.17,  2649.60000,   619.70000
    838.63,  2650.20000,   611.80000
    839.08,  2654.30000,   601.10000
    839.54,  2671.30000,   607.30000
    839.99,  2656.80000,   621.00000
    840.45,  2664.70000,   622.80000
    840.90,  2681.30000,   624.70000
    841.36,  2696.50000,   611.60000
    841.81,  2690.10000,   604.10000
    842.27,  2676.80000,   611.50000
    842.72,  2655.00000,   608.40000
    843.18,  2656.60000,   615.30000
    843.63,  2638.90000,   611.00000
    844.09,  2636.60000,   610.10000
    844.55,  2625.30000,   610.60000
    845.00,  2615.80000,   617.40000
    845.46,  2621.50000,   622.70000
    845.91,  2640.00000,   627.00000
    846.37,  2656.30000,   621.20000
    846.82,  2683.20000,   619.80000
    847.28,  2689.80000,   613.40000
    847.73,  2640.60000,   608.30000
    848.19,  2664.80000,   615.50000
    848.64,  2673.80000,   619.10000
    849.10,  2697.00000,   618.60000
    849.55,  2706.30000,   623.10000
    850.01,  2695.60000,   616.00000
    850.46,  2637.10000,   607.20000
    850.92,  2662.60000,   612.90000
    851.37,  2665.80000,   624.30000
    851.83,  2669.90000,   625.10000
    852.28,  2664.80000,   629.90000
    852.73,  2646.60000,   625.30000
    853.19,  2622.50000,   616.60000
    853.64,  2626.80000,   621.40000
    854.10,  2633.30000,   627.60000
    854.55,  2643.50000,   623.30000
    855.01,  2651.50000,   616.20000
    855.46,  2626.50000,   614.40000
    855.92,  2619.30000,   606.70000
    856.37,  2616.50000,   606.00000
    856.83,  2613.30000,   610.50000
    857.28,  2634.20000,   614.50000
    857.74,  2641.70000,   608.50000
    858.19,  2643.00000,   605.00000
    858.64,  2662.80000,   598.90000
    859.10,  2646.40000,   602.00000
    859.55,  2620.60000,   607.30000
    860.01,  2672.60000,   613.70000
    860.46,  2695.80000,   612.70000
    860.92,  2701.90000,   611.70000
    861.37,  2697.50000,   609.60000
    861.83,  2691.70000,   603.20000
    862.28,  2662.20000,   599.20000
    862.73,  2679.60000,   599.50000
    863.19,  2661.20000,   611.20000
    863.64,  2638.20000,   621.80000
    864.10,  2622.60000,   624.00000
    864.55,  2654.20000,   615.90000
    865.01,  2651.80000,   613.40000
    865.46,  2667.20000,   611.40000
    865.91,  2653.50000,   611.50000
    866.37,  2644.60000,   608.40000
    866.82,  2640.60000,   598.80000
    867.28,  2645.80000,   591.60000
    867.73,  2636.40000,   598.00000
    868.18,  2664.10000,   608.40000
    868.64,  2666.80000,   612.50000
    869.09,  2682.70000,   617.00000
    869.55,  2691.10000,   617.00000
    870.00,  2675.20000,   615.30000
    870.45,  2658.40000,   615.40000
    870.91,  2629.10000,   612.20000
    871.36,  2610.00000,   607.90000
    871.81,  2631.40000,   607.40000
    872.27,  2656.70000,   612.80000
    872.72,  2657.90000,   619.80000
    873.18,  2651.90000,   620.40000
    873.63,  2628.00000,   613.70000
    874.08,  2628.50000,   605.00000
    874.54,  2642.60000,   612.50000
    874.99,  2644.30000,   612.10000
    875.44,  2627.90000,   611.30000
    875.90,  2603.80000,   609.40000
    876.35,  2606.30000,   606.90000
    876.81,  2642.90000,   611.00000
    877.26,  2669.70000,   621.30000
    877.71,  2657.70000,   617.10000
    878.17,  2632.70000,   616.50000
    878.62,  2647.90000,   613.30000
    879.07,  2673.80000,   611.80000
    879.53,  2702.80000,   611.10000
    879.98,  2695.80000,   604.30000
    880.43,  2668.90000,   608.30000
    880.89,  2644.70000,   614.30000
    881.34,  2648.40000,   612.60000
    881.79,  2664.20000,   606.40000
    882.25,  2656.80000,   604.70000
    882.70,  2631.90000,   606.50000
    883.15,  2615.30000,   618.60000
    883.61,  2625.70000,   628.50000
    884.06,  2613.80000,   628.70000
    884.51,  2636.10000,   629.70000
    884.97,  2622.60000,   627.60000
    885.42,  2634.60000,   627.00000
    885.87,  2637.90000,   618.90000
    886.32,  2651.70000,   622.80000
    886.78,  2624.50000,   623.90000
    887.23,  2636.20000,   622.20000
    887.68,  2628.60000,   619.60000
    888.14,  2635.60000,   621.50000
    888.59,  2625.10000,   619.50000
    889.04,  2607.90000,   621.60000
    889.50,  2574.40000,   624.20000
    889.95,  2594.60000,   621.30000
    890.40,  2622.20000,   620.50000
    890.85,  2639.90000,   622.70000
    891.31,  2634.50000,   625.40000
    891.76,  2640.20000,   616.00000
    892.21,  2625.40000,   620.40000
    892.67,  2637.20000,   625.10000
    893.12,  2630.00000,   632.70000
    893.57,  2627.80000,   651.40000
    894.02,  2630.50000,   653.20000
    894.48,  2656.20000,   633.60000
    894.93,  2660.10000,   629.20000
    895.38,  2672.70000,   609.80000
    895.83,  2654.50000,   604.00000
    896.29,  2643.70000,   620.30000
    896.74,  2637.90000,   622.00000
    897.19,  2654.90000,   625.00000
    897.64,  2656.80000,   642.30000
    898.10,  2661.10000,   642.60000
    898.55,  2643.90000,   632.60000
    899.00,  2633.70000,   631.40000
    899.45,  2601.40000,   632.70000
    899.91,  2597.70000,   630.50000
    900.36,  2580.50000,   637.80000
    900.81,  2609.90000,   651.20000
    901.26,  2630.30000,   647.80000
    901.72,  2653.90000,   640.10000
    902.17,  2644.60000,   646.70000
    902.62,  2649.90000,   632.60000
    903.07,  2612.30000,   628.40000
    903.52,  2618.60000,   635.60000
    903.98,  2622.50000,   641.90000
    904.43,  2630.20000,   639.90000
    904.88,  2619.40000,   644.10000
    905.33,  2629.50000,   637.50000
    905.79,  2612.40000,   640.30000
    906.24,  2625.80000,   639.80000
    906.69,  2645.90000,   640.90000
    907.14,  2645.10000,   640.90000
    907.59,  2619.90000,   633.10000
    908.05,  2602.70000,   637.90000
    908.50,  2581.70000,   649.20000
    908.95,  2595.20000,   660.60000
    909.40,  2603.90000,   673.80000
    909.85,  2602.00000,   677.10000
    910.31,  2611.70000,   671.10000
    910.76,  2595.90000,   670.20000
    911.21,  2581.80000,   666.50000
    911.66,  2581.00000,   664.80000
    912.11,  2574.10000,   665.70000
    912.56,  2602.20000,   667.20000
    913.02,  2627.60000,   669.80000
    913.47,  2619.00000,   683.80000
    913.92,  2611.70000,   691.80000
    914.37,  2596.50000,   700.70000
    914.82,  2597.70000,   707.00000
    915.27,  2619.00000,   713.20000
    915.73,  2644.40000,   704.50000
    916.18,  2631.20000,   706.40000
    916.63,  2617.20000,   704.90000
    917.08,  2583.00000,   712.60000
    917.53,  2609.10000,   736.50000
    917.98,  2493.00000,   758.30000
    918.44,  2843.80000,   766.80000
    918.89,  3022.40000,   779.30000
    919.34,  3075.20000,   788.40000
    919.79,  2985.10000,   797.00000
    920.24,  2821.20000,   814.10000
    920.69,  2502.50000,   831.70000
    921.14,  2641.70000,   849.20000
    921.59,  2632.30000,   882.70000
    922.05,  2621.90000,   910.30000
    922.50,  2611.10000,   950.60000
    922.95,  2630.00000,   990.20000
    923.40,  2650.60000,  1033.00000
    923.85,  2664.50000,  1089.20000
    924.30,  2675.30000,  1160.20000
    924.75,  2659.40000,  1257.40000
    925.20,  2625.90000,  1396.50000
    925.66,  2602.30000,  1554.40000
    926.11,  2600.70000,  1736.50000
    926.56,  2611.00000,  1953.00000
    927.01,  2636.40000,  2187.10000
    927.46,  2630.40000,  2433.50000
    927.91,  2596.30000,  2658.30000
    928.36,  2571.00000,  2869.40000
    928.81,  2578.20000,  3097.40000
    929.26,  2602.40000,  3369.40000
    929.71,  2638.00000,  3679.00000
    930.16,  2662.10000,  3978.80000
    930.62,  2638.40000,  4252.60000
    931.07,  2625.20000,  4501.30000
    931.52,  2619.80000,  4725.10000
    931.97,  2629.30000,  4938.70000
    932.42,  2636.00000,  5136.40000
    932.87,  2648.70000,  5308.00000
    933.32,  2623.00000,  5536.50000
    933.77,  2637.20000,  5784.60000
    934.22,  2631.90000,  6062.30000
    934.67,  2649.40000,  6340.00000
    935.12,  2647.50000,  6577.50000
    935.57,  2627.60000,  6733.50000
    936.02,  2597.50000,  6831.90000
    936.47,  2615.60000,  6816.60000
    936.93,  2583.00000,  6758.20000
    937.38,  2579.80000,  6684.30000
    937.83,  2589.40000,  6657.10000
    938.28,  2588.80000,  6697.00000
    938.73,  2593.90000,  6760.30000
    939.18,  2616.10000,  6833.80000
    939.63,  2618.80000,  6908.90000
    940.08,  2626.80000,  6991.10000
    940.53,  2648.00000,  7087.00000
    940.98,  2646.40000,  7215.80000
    941.43,  2615.10000,  7336.00000
    941.88,  2600.70000,  7443.10000
    942.33,  2608.80000,  7537.70000
    942.78,  2602.70000,  7607.90000
    943.23,  2626.70000,  7681.00000
    943.68,  2631.10000,  7781.60000
    944.13,  2634.00000,  7876.80000
    944.58,  2649.00000,  7986.20000
    945.03,  2649.50000,  8039.10000
    945.48,  2613.30000,  8002.80000
    945.93,  2611.20000,  7979.90000
    946.38,  2612.10000,  8033.70000
    946.83,  2633.80000,  8184.80000
    947.28,  2651.20000,  8384.20000
    947.73,  2649.30000,  8509.30000
    948.18,  2621.50000,  8520.30000
    948.63,  2608.90000,  8405.20000
    949.08,  2600.70000,  8319.60000
    949.53,  2583.90000,  8344.30000
    949.98,  2571.70000,  8363.40000
    950.43,  2584.10000,  8354.50000
    950.88,  2598.10000,  8317.30000
    951.33,  2620.60000,  8200.10000
    951.78,  2652.40000,  8105.10000
    952.23,  2654.80000,  8044.50000
    952.68,  2631.30000,  7976.90000
    953.13,  2632.90000,  7859.50000
    953.58,  2626.20000,  7699.00000
    954.03,  2612.60000,  7524.40000
    954.48,  2605.60000,  7360.30000
    954.93,  2593.20000,  7258.40000
    955.38,  2577.40000,  7225.30000
    955.83,  2589.50000,  7180.50000
    956.28,  2597.80000,  7087.70000
    956.73,  2612.70000,  6974.30000
    957.18,  2624.60000,  6858.60000
    957.62,  2612.40000,  6808.80000
    958.07,  2617.90000,  6772.60000
    958.52,  2607.00000,  6656.70000
    958.97,  2595.80000,  6477.60000
    959.42,  2597.00000,  6239.30000
    959.87,  2594.10000,  6008.50000
    960.32,  2592.50000,  5794.90000
    960.77,  2615.10000,  5593.80000
    961.22,  2656.30000,  5377.40000
    961.67,  2679.10000,  5217.90000
    962.12,  2664.50000,  5127.80000
    962.57,  2642.20000,  5043.60000
    963.02,  2635.30000,  4939.70000
    963.47,  2612.00000,  4793.40000
    963.92,  2634.30000,  4610.80000
    964.36,  2636.80000,  4483.90000
    964.81,  2626.30000,  4404.20000
    965.26,  2628.20000,  4330.90000
    965.71,  2630.40000,  4309.30000
    966.16,  2617.20000,  4275.70000
    966.61,  2608.30000,  4187.80000
    967.06,  2601.60000,  4080.30000
    967.51,  2618.90000,  3937.60000
    967.96,  2631.90000,  3801.10000
    968.41,  2640.10000,  3672.80000
    968.85,  2636.80000,  3553.50000
    969.30,  2623.80000,  3437.10000
    969.75,  2634.30000,  3306.10000
    970.20,  2635.40000,  3171.90000
    970.65,  2641.90000,  3030.40000
    971.10,  2628.80000,  2884.20000
    971.55,  2625.70000,  2756.60000
    972.00,  2610.30000,  2660.30000
    972.44,  2602.20000,  2564.30000
    972.89,  2623.00000,  2476.00000
    973.34,  2639.50000,  2392.00000
    973.79,  2636.80000,  2332.80000
    974.24,  2646.50000,  2276.70000
    974.69,  2623.30000,  2213.70000
    975.14,  2590.50000,  2161.90000
    975.59,  2590.40000,  2117.60000
    976.03,  2578.50000,  2073.10000
    976.48,  2576.10000,  2051.30000
    976.93,  2580.90000,  2033.70000
    977.38,  2584.60000,  2018.60000
    977.83,  2574.00000,  2026.30000
    978.28,  2581.10000,  2044.70000
    978.72,  2594.90000,  2058.70000
    979.17,  2610.90000,  2058.30000
    979.62,  2625.70000,  2038.40000
    980.07,  2638.40000,  2007.10000
    980.52,  2626.80000,  1983.40000
    980.97,  2606.30000,  1976.00000
    981.41,  2557.90000,  1984.50000
    981.86,  2532.10000,  1993.70000
    982.31,  2546.90000,  1991.70000
    982.76,  2574.00000,  1972.30000
    983.21,  2615.60000,  1922.40000
    983.66,  2623.60000,  1857.00000
    984.10,  2594.50000,  1782.40000
    984.55,  2578.50000,  1711.00000
    985.00,  2564.50000,  1648.80000
    985.45,  2546.30000,  1599.20000
    985.90,  2557.10000,  1550.90000
    986.34,  2568.90000,  1513.80000
    986.79,  2564.10000,  1472.60000
    987.24,  2570.30000,  1425.60000
    987.69,  2548.10000,  1386.20000
    988.14,  2547.30000,  1334.20000
    988.58,  2567.80000,  1276.60000
    989.03,  2590.90000,  1228.10000
    989.48,  2596.50000,  1187.10000
    989.93,  2596.50000,  1150.90000
    990.38,  2568.20000,  1139.50000
    990.82,  2574.50000,  1108.00000
    991.27,  2593.30000,  1078.30000
    991.72,  2615.10000,  1061.50000
    992.17,  2597.10000,  1048.20000
    992.61,  2599.30000,  1030.70000
    993.06,  2570.20000,  1010.80000
    993.51,  2598.70000,   970.40000
    993.96,  2605.20000,   943.40000
    994.41,  2593.20000,   936.90000
    994.85,  2573.30000,   928.90000
    995.30,  2583.00000,   923.60000
    995.75,  2575.80000,   909.20000
    996.20,  2622.90000,   890.60000
    996.64,  2612.20000,   872.30000
    997.09,  2577.60000,   858.90000
    997.54,  2562.80000,   850.00000
    997.99,  2545.80000,   843.90000
    998.43,  2544.80000,   835.70000
    998.88,  2552.40000,   830.60000
    999.33,  2562.90000,   820.20000
    999.77,  2586.20000,   811.90000
   1000.22,  2603.10000,   812.80000
   1000.67,  2622.10000,   797.30000
   1001.12,  2626.70000,   792.20000
   1001.56,  2591.00000,   789.00000
   1002.01,  2567.20000,   784.20000
   1002.46,  2571.10000,   791.40000
   1002.91,  2553.60000,   791.10000
   1003.35,  2579.90000,   778.20000
   1003.80,  2575.40000,   778.90000
   1004.25,  2574.50000,   769.60000
   1004.69,  2570.70000,   772.40000
   1005.14,  2555.20000,   783.80000
   1005.59,  2555.30000,   788.10000
   1006.04,  2587.10000,   794.20000
   1006.48,  2607.30000,   785.80000
   1006.93,  2635.80000,   776.20000
   1007.38,  2629.00000,   768.20000
   1007.82,  2581.80000,   761.70000
   1008.27,  2557.30000,   755.30000
   1008.72,  2540.20000,   756.70000
   1009.16,  2542.10000,   755.80000
   1009.61,  2551.70000,   767.10000
   1010.06,  2558.60000,   769.10000
   1010.50,  2587.70000,   772.30000
   1010.95,  2614.30000,   765.30000
   1011.40,  2623.10000,   759.90000
   1011.85,  2600.00000,   760.20000
   1012.29,  2589.20000,   760.70000
   1012.74,  2561.80000,   757.70000
   1013.19,  2561.10000,   757.90000
   1013.63,  2601.10000,   757.70000
   1014.08,  2630.70000,   756.40000
   1014.53,  2621.50000,   756.30000
   1014.97,  2607.40000,   754.70000
   1015.42,  2574.70000,   753.70000
   1015.86,  2536.50000,   758.20000
   1016.31,  2552.90000,   768.90000
   1016.76,  2581.00000,   776.70000
   1017.20,  2574.20000,   780.10000
   1017.65,  2558.90000,   772.60000
   1018.10,  2559.20000,   765.20000
   1018.54,  2549.40000,   759.10000
   1018.99,  2575.90000,   751.00000
   1019.44,  2583.00000,   748.70000
   1019.88,  2571.90000,   759.00000
   1020.33,  2560.40000,   761.20000
   1020.78,  2562.70000,   769.30000
   1021.22,  2570.10000,   778.40000
   1021.67,  2577.70000,   777.30000
   1022.11,  2569.40000,   768.00000
   1022.56,  2569.90000,   766.70000
   1023.01,  2555.30000,   763.50000
   1023.45,  2542.90000,   762.60000
   1023.90,  2543.40000,   767.10000
   1024.34,  2527.60000,   774.40000
   1024.79,  2534.70000,   770.30000
   1025.24,  2558.50000,   772.30000
   1025.68,  2556.20000,   765.90000
   1026.13,  2560.80000,   765.30000
   1026.58,  2568.80000,   763.80000
   1027.02,  2576.00000,   764.40000
   1027.47,  2576.70000,   770.40000
   1027.91,  2575.10000,   774.10000
   1028.36,  2548.50000,   770.70000
   1028.80,  2539.10000,   773.00000
   1029.25,  2522.30000,   773.40000
   1029.70,  2528.90000,   768.90000
   1030.14,  2528.00000,   779.80000
   1030.59,  2524.30000,   786.70000
   1031.03,  2530.40000,   786.10000
   1031.48,  2546.70000,   784.40000
   1031.93,  2570.50000,   787.90000
   1032.37,  2603.50000,   779.70000
   1032.82,  2608.40000,   773.40000
   1033.26,  2602.50000,   781.50000
   1033.71,  2583.40000,   775.80000
   1034.15,  2571.20000,   775.10000
   1034.60,  2564.20000,   774.90000
   1035.05,  2579.80000,   771.70000
   1035.49,  2570.00000,   760.00000
   1035.94,  2564.00000,   771.30000
   1036.38,  2532.00000,   771.30000
   1036.83,  2511.50000,   779.20000
   1037.27,  2498.40000,   784.60000
   1037.72,  2502.10000,   785.50000
   1038.16,  2605.50000,   786.20000
   1038.61,  2679.90000,   787.30000
   1039.05,  2686.50000,   783.70000
   1039.50,  2670.20000,   797.00000
   1039.95,  2612.50000,   809.30000
   1040.39,  2541.80000,   805.10000
   1040.84,  2553.80000,   804.50000
   1041.28,  2557.50000,   783.90000
   1041.73,  2554.40000,   771.20000
   1042.17,  2562.80000,   771.10000
   1042.62,  2561.70000,   775.30000
   1043.06,  2564.20000,   789.20000
   1043.51,  2540.60000,   802.30000
   1043.95,  2552.30000,   801.70000
   1044.40,  2553.50000,   800.70000
   1044.84,  2545.30000,   792.90000
   1045.29,  2542.00000,   783.80000
   1045.73,  2543.50000,   791.90000
   1046.18,  2524.30000,   804.70000
   1046.62,  2520.50000,   814.20000
   1047.07,  2513.70000,   813.00000
   1047.51,  2498.10000,   810.10000
   1047.96,  2535.10000,   802.90000
   1048.40,  2582.80000,   803.70000
   1048.85,  2600.10000,   807.60000
   1049.29,  2588.60000,   805.10000
   1049.74,  2546.90000,   804.10000
   1050.18,  2502.60000,   812.30000
   1050.63,  2506.40000,   818.00000
   1051.07,  2516.00000,   826.40000
   1051.52,  2532.50000,   823.80000
   1051.96,  2518.70000,   825.40000
   1052.41,  2500.70000,   830.90000
   1052.85,  2500.90000,   833.00000
   1053.30,  2504.10000,   826.00000
   1053.74,  2509.20000,   816.10000
   1054.18,  2517.40000,   808.80000
   1054.63,  2498.00000,   816.40000
   1055.07,  2485.70000,   826.40000
   1055.52,  2486.40000,   824.60000
   1055.96,  2480.40000,   826.60000
   1056.41,  2477.80000,   824.40000
   1056.85,  2468.40000,   833.50000
   1057.30,  2470.80000,   838.10000
   1057.74,  2464.70000,   854.90000
   1058.18,  2471.80000,   847.90000
   1058.63,  2445.90000,   846.80000
   1059.07,  2449.00000,   837.70000
   1059.52,  2458.90000,   830.60000
   1059.96,  2465.40000,   823.60000
   1060.41,  2465.10000,   830.60000
   1060.85,  2478.40000,   834.30000
   1061.30,  2457.90000,   846.60000
   1061.74,  2454.00000,   849.40000
   1062.18,  2448.90000,   854.50000
   1062.63,  2421.30000,   862.10000
   1063.07,  2416.10000,   869.30000
   1063.52,  2422.90000,   871.70000
   1063.96,  2439.00000,   873.20000
   1064.40,  2449.70000,   858.80000
   1064.85,  2443.50000,   866.50000
   1065.29,  2422.80000,   869.30000
   1065.74,  2408.30000,   876.20000
   1066.18,  2383.60000,   875.70000
