2D Measure spectrum data V5.74

<< MEASURE 1 >>
Data count = 2048
Exposure time = 30000 msec
Average = 10
Inspected time = 2020/10/19 19:29

Wave-dcm-1,Dark spec.  ,Spectrum
    108.17,  2245.20000,   602.90000
    108.66,  2248.80000,   598.70000
    109.15,  2254.20000,   602.10000
    109.65,  2273.70000,   598.90000
    110.14,  2285.10000,   592.40000
    110.63,  2298.70000,   577.40000
    111.13,  2319.90000,   566.40000
    111.62,  2313.00000,   557.20000
    112.11,  2324.50000,   565.30000
    112.60,  2343.10000,   565.10000
    113.10,  2328.30000,   568.60000
    113.59,  2348.50000,   557.00000
    114.08,  2370.40000,   547.00000
    114.58,  2365.10000,   537.80000
    115.07,  2408.10000,   538.10000
    115.56,  2420.10000,   540.60000
    116.06,  2406.90000,   549.00000
    116.55,  2409.30000,   551.70000
    117.04,  2400.20000,   547.70000
    117.53,  2376.20000,   551.70000
    118.03,  2409.10000,   553.00000
    118.52,  2413.80000,   558.10000
    119.01,  2411.10000,   563.60000
    119.51,  2502.50000,   571.80000
    120.00,  2588.10000,   581.30000
    120.49,  2613.90000,   596.60000
    120.98,  2614.80000,   602.20000
    121.48,  2530.70000,   619.50000
    121.97,  2432.30000,   632.00000
    122.46,  2427.40000,   644.50000
    122.95,  2451.70000,   670.10000
    123.45,  2485.00000,   684.10000
    123.94,  2492.50000,   698.60000
    124.43,  2509.90000,   711.80000
    124.92,  2534.60000,   723.90000
    125.42,  2534.60000,   729.70000
    125.91,  2547.50000,   751.40000
    126.40,  2537.40000,   769.20000
    126.89,  2511.60000,   793.70000
    127.39,  2505.40000,   804.30000
    127.88,  2498.90000,   816.70000
    128.37,  2503.80000,   815.50000
    128.86,  2527.90000,   823.00000
    129.35,  2522.00000,   839.60000
    129.85,  2526.50000,   867.60000
    130.34,  2516.20000,   892.50000
    130.83,  2517.50000,   910.40000
    131.32,  2528.10000,   917.00000
    131.81,  2537.80000,   908.30000
    132.31,  2536.10000,   913.70000
    132.80,  2529.80000,   930.80000
    133.29,  2511.80000,   941.70000
    133.78,  2525.50000,   950.40000
    134.27,  2542.20000,   966.70000
    134.77,  2554.70000,   973.80000
    135.26,  2581.50000,   988.40000
    135.75,  2575.00000,  1006.60000
    136.24,  2589.60000,  1011.10000
    136.73,  2579.20000,  1007.50000
    137.23,  2588.10000,  1017.50000
    137.72,  2581.50000,  1021.10000
    138.21,  2578.60000,  1025.40000
    138.70,  2561.60000,  1042.10000
    139.19,  2593.80000,  1053.80000
    139.68,  2578.80000,  1066.60000
    140.18,  2583.40000,  1082.30000
    140.67,  2605.00000,  1079.40000
    141.16,  2607.90000,  1088.90000
    141.65,  2603.10000,  1098.50000
    142.14,  2603.60000,  1111.90000
    142.63,  2618.50000,  1136.00000
    143.13,  2612.90000,  1165.60000
    143.62,  2651.90000,  1177.30000
    144.11,  2645.30000,  1201.70000
    144.60,  2603.50000,  1217.40000
    145.09,  2582.70000,  1236.00000
    145.58,  2637.70000,  1253.10000
    146.07,  2661.20000,  1260.60000
    146.56,  2685.20000,  1262.40000
    147.06,  2676.10000,  1276.20000
    147.55,  2640.20000,  1306.70000
    148.04,  2590.80000,  1337.70000
    148.53,  2639.70000,  1348.80000
    149.02,  2638.30000,  1349.80000
    149.51,  2725.00000,  1361.80000
    150.00,  2781.10000,  1377.90000
    150.49,  2789.40000,  1429.80000
    150.99,  2763.00000,  1485.00000
    151.48,  2734.10000,  1535.20000
    151.97,  2642.20000,  1582.50000
    152.46,  2650.10000,  1617.30000
    152.95,  2632.70000,  1635.60000
    153.44,  2632.70000,  1653.80000
    153.93,  2649.60000,  1668.80000
    154.42,  2673.90000,  1669.60000
    154.91,  2654.70000,  1675.60000
    155.40,  2648.70000,  1670.00000
    155.89,  2632.10000,  1680.80000
    156.39,  2644.30000,  1692.10000
    156.88,  2615.10000,  1714.50000
    157.37,  2629.50000,  1722.60000
    157.86,  2637.90000,  1751.00000
    158.35,  2648.20000,  1776.20000
    158.84,  2665.80000,  1818.30000
    159.33,  2706.80000,  1863.50000
    159.82,  2716.10000,  1887.10000
    160.31,  2731.00000,  1900.60000
    160.80,  2767.60000,  1911.50000
    161.29,  2726.40000,  1905.10000
    161.78,  2698.00000,  1905.10000
    162.27,  2662.80000,  1912.30000
    162.76,  2659.70000,  1905.80000
    163.25,  2664.20000,  1919.00000
    163.74,  2695.70000,  1935.50000
    164.23,  2702.00000,  1954.00000
    164.72,  2726.50000,  1985.10000
    165.21,  2700.00000,  2006.10000
    165.70,  2682.60000,  2026.50000
    166.20,  2715.00000,  2044.20000
    166.69,  2737.20000,  2051.10000
    167.18,  2750.90000,  2047.20000
    167.67,  2747.30000,  2042.40000
    168.16,  2721.10000,  2018.90000
    168.65,  2671.90000,  2001.40000
    169.14,  2699.90000,  1988.50000
    169.63,  2698.60000,  1984.10000
    170.12,  2692.70000,  1975.20000
    170.61,  2680.70000,  1967.20000
    171.10,  2735.80000,  1950.20000
    171.59,  2729.70000,  1941.10000
    172.08,  2741.50000,  1929.50000
    172.57,  2734.20000,  1930.90000
    173.06,  2731.50000,  1932.60000
    173.55,  2728.30000,  1907.90000
    174.04,  2724.00000,  1889.40000
    174.53,  2718.50000,  1889.00000
    175.02,  2714.20000,  1891.90000
    175.50,  2727.70000,  1910.90000
    175.99,  2750.20000,  1923.00000
    176.48,  2776.00000,  1903.40000
    176.97,  2749.60000,  1887.40000
    177.46,  2752.70000,  1871.80000
    177.95,  2729.20000,  1862.90000
    178.44,  2715.10000,  1860.90000
    178.93,  2694.40000,  1860.70000
    179.42,  2713.80000,  1850.60000
    179.91,  2733.00000,  1841.20000
    180.40,  2748.80000,  1832.30000
    180.89,  2761.40000,  1835.30000
    181.38,  2748.90000,  1845.70000
    181.87,  2736.20000,  1866.00000
    182.36,  2734.20000,  1873.10000
    182.85,  2709.30000,  1878.80000
    183.34,  2728.20000,  1875.60000
    183.83,  2734.10000,  1870.20000
    184.32,  2731.60000,  1851.80000
    184.81,  2768.70000,  1850.30000
    185.29,  2762.90000,  1836.60000
    185.78,  2730.10000,  1831.70000
    186.27,  2736.70000,  1829.60000
    186.76,  2720.50000,  1829.70000
    187.25,  2695.30000,  1815.70000
    187.74,  2763.20000,  1811.70000
    188.23,  2794.30000,  1800.00000
    188.72,  2818.40000,  1794.20000
    189.21,  2809.60000,  1799.20000
    189.70,  2779.90000,  1801.90000
    190.19,  2740.80000,  1812.40000
    190.67,  2731.00000,  1808.90000
    191.16,  2732.90000,  1807.20000
    191.65,  2741.50000,  1798.80000
    192.14,  2729.10000,  1790.80000
    192.63,  2749.50000,  1778.00000
    193.12,  2761.30000,  1775.80000
    193.61,  2743.20000,  1770.00000
    194.10,  2762.70000,  1766.60000
    194.59,  2756.70000,  1765.20000
    195.07,  2752.50000,  1764.70000
    195.56,  2761.10000,  1771.20000
    196.05,  2740.70000,  1778.40000
    196.54,  2722.80000,  1795.40000
    197.03,  2749.00000,  1794.10000
    197.52,  2789.00000,  1788.40000
    198.01,  2804.50000,  1776.80000
    198.49,  2806.40000,  1774.30000
    198.98,  2792.90000,  1770.90000
    199.47,  2752.00000,  1768.80000
    199.96,  2744.20000,  1758.70000
    200.45,  2755.50000,  1756.30000
    200.94,  2735.30000,  1752.00000
    201.43,  2750.40000,  1737.60000
    201.91,  2747.10000,  1732.60000
    202.40,  2745.10000,  1717.10000
    202.89,  2745.60000,  1711.60000
    203.38,  2750.70000,  1729.20000
    203.87,  2738.60000,  1739.50000
    204.36,  2729.20000,  1748.20000
    204.84,  2720.40000,  1772.00000
    205.33,  2739.80000,  1767.00000
    205.82,  2756.20000,  1760.40000
    206.31,  2755.00000,  1755.20000
    206.80,  2752.30000,  1749.20000
    207.28,  2756.70000,  1759.10000
    207.77,  2761.40000,  1774.80000
    208.26,  2777.80000,  1767.90000
    208.75,  2783.90000,  1767.50000
    209.24,  2767.80000,  1766.30000
    209.72,  2779.60000,  1766.70000
    210.21,  2789.00000,  1783.50000
    210.70,  2768.70000,  1796.10000
    211.19,  2782.90000,  1811.20000
    211.68,  2786.30000,  1822.40000
    212.16,  2791.20000,  1824.60000
    212.65,  2805.10000,  1808.80000
    213.14,  2788.70000,  1805.10000
    213.63,  2779.00000,  1799.10000
    214.12,  2760.10000,  1801.50000
    214.60,  2769.10000,  1805.60000
    215.09,  2790.60000,  1804.40000
    215.58,  2794.30000,  1806.10000
    216.07,  2782.40000,  1818.90000
    216.55,  2789.30000,  1829.40000
    217.04,  2723.90000,  1839.50000
    217.53,  2718.10000,  1866.90000
    218.02,  2721.00000,  1881.80000
    218.50,  2732.30000,  1902.80000
    218.99,  2748.60000,  1929.80000
    219.48,  2783.20000,  1937.70000
    219.97,  2747.40000,  1958.10000
    220.45,  2756.10000,  1983.70000
    220.94,  2751.60000,  2003.90000
    221.43,  2761.80000,  2033.40000
    221.92,  2770.80000,  2075.40000
    222.40,  2766.70000,  2097.00000
    222.89,  2760.60000,  2113.00000
    223.38,  2787.30000,  2130.10000
    223.86,  2814.80000,  2144.20000
    224.35,  2836.40000,  2164.30000
    224.84,  2832.50000,  2187.90000
    225.33,  2812.20000,  2203.20000
    225.81,  2777.10000,  2212.60000
    226.30,  2755.00000,  2232.40000
    226.79,  2751.40000,  2243.30000
    227.27,  2739.10000,  2255.70000
    227.76,  2750.00000,  2245.20000
    228.25,  2781.50000,  2237.70000
    228.74,  2799.60000,  2219.40000
    229.22,  2821.40000,  2188.80000
    229.71,  2812.80000,  2162.60000
    230.20,  2786.80000,  2140.90000
    230.68,  2775.30000,  2112.30000
    231.17,  2756.40000,  2098.70000
    231.66,  2732.90000,  2066.90000
    232.14,  2734.00000,  2023.10000
    232.63,  2731.90000,  1976.30000
    233.12,  2759.70000,  1932.20000
    233.60,  2787.00000,  1892.40000
    234.09,  2767.20000,  1866.30000
    234.58,  2753.00000,  1841.30000
    235.06,  2752.40000,  1820.10000
    235.55,  2748.60000,  1788.70000
    236.04,  2741.10000,  1779.00000
    236.52,  2761.30000,  1751.10000
    237.01,  2740.80000,  1742.60000
    237.50,  2778.70000,  1732.30000
    237.98,  2773.80000,  1720.80000
    238.47,  2833.00000,  1691.40000
    238.96,  2839.90000,  1679.10000
    239.44,  2836.30000,  1651.50000
    239.93,  2823.10000,  1662.10000
    240.41,  2775.80000,  1661.40000
    240.90,  2706.80000,  1662.50000
    241.39,  2738.00000,  1651.80000
    241.87,  2777.60000,  1649.50000
    242.36,  2800.20000,  1631.10000
    242.85,  2844.40000,  1632.80000
    243.33,  2835.50000,  1618.70000
    243.82,  2810.40000,  1613.80000
    244.30,  2786.20000,  1609.80000
    244.79,  2786.30000,  1610.80000
    245.28,  2767.70000,  1601.00000
    245.76,  2771.10000,  1598.60000
    246.25,  2760.20000,  1583.70000
    246.74,  2777.60000,  1582.00000
    247.22,  2800.40000,  1579.00000
    247.71,  2796.60000,  1587.40000
    248.19,  2779.80000,  1596.20000
    248.68,  2777.70000,  1606.30000
    249.16,  2744.50000,  1592.80000
    249.65,  2769.70000,  1594.80000
    250.14,  2793.10000,  1583.10000
    250.62,  2776.10000,  1582.90000
    251.11,  2752.80000,  1588.60000
    251.59,  2739.30000,  1589.80000
    252.08,  2726.90000,  1584.00000
    252.57,  2733.90000,  1593.10000
    253.05,  2739.80000,  1592.80000
    253.54,  2778.40000,  1581.80000
    254.02,  2800.20000,  1578.40000
    254.51,  2809.30000,  1563.40000
    254.99,  2803.90000,  1560.70000
    255.48,  2774.90000,  1559.90000
    255.96,  2745.10000,  1568.60000
    256.45,  2779.80000,  1550.40000
    256.94,  2781.80000,  1545.30000
    257.42,  2782.00000,  1538.10000
    257.91,  2787.80000,  1545.50000
    258.39,  2790.40000,  1543.70000
    258.88,  2776.20000,  1545.60000
    259.36,  2792.90000,  1536.40000
    259.85,  2782.90000,  1542.30000
    260.33,  2792.10000,  1549.90000
    260.82,  2819.00000,  1554.10000
    261.30,  2833.20000,  1549.20000
    261.79,  2815.20000,  1533.70000
    262.27,  2790.90000,  1538.10000
    262.76,  2772.20000,  1537.80000
    263.24,  2764.90000,  1549.00000
    263.73,  2791.90000,  1550.80000
    264.22,  2790.80000,  1554.90000
    264.70,  2859.50000,  1548.20000
    265.19,  2879.10000,  1563.10000
    265.67,  2875.70000,  1563.30000
    266.16,  2848.70000,  1566.00000
    266.64,  2819.30000,  1568.30000
    267.13,  2756.80000,  1562.60000
    267.61,  2761.90000,  1560.80000
    268.10,  2775.00000,  1561.30000
    268.58,  2778.10000,  1557.50000
    269.06,  2783.10000,  1557.70000
    269.55,  2803.10000,  1564.60000
    270.03,  2812.30000,  1568.60000
    270.52,  2803.10000,  1588.70000
    271.00,  2810.80000,  1598.00000
    271.49,  2804.80000,  1598.20000
    271.97,  2800.60000,  1604.00000
    272.46,  2814.40000,  1611.20000
    272.94,  2818.80000,  1615.50000
    273.43,  2811.80000,  1625.70000
    273.91,  2786.20000,  1634.20000
    274.40,  2768.70000,  1635.30000
    274.88,  2752.20000,  1637.30000
    275.37,  2757.10000,  1641.30000
    275.85,  2761.60000,  1642.70000
    276.33,  2772.40000,  1642.90000
    276.82,  2788.10000,  1657.70000
    277.30,  2796.60000,  1669.20000
    277.79,  2791.00000,  1677.40000
    278.27,  2801.50000,  1680.80000
    278.76,  2815.40000,  1683.80000
    279.24,  2816.40000,  1695.00000
    279.73,  2813.60000,  1708.50000
    280.21,  2802.40000,  1721.60000
    280.69,  2780.80000,  1730.20000
    281.18,  2783.70000,  1739.50000
    281.66,  2804.20000,  1739.50000
    282.15,  2835.00000,  1747.20000
    282.63,  2827.50000,  1753.40000
    283.11,  2818.20000,  1757.80000
    283.60,  2811.90000,  1774.50000
    284.08,  2818.40000,  1794.30000
    284.57,  2797.00000,  1810.20000
    285.05,  2797.10000,  1814.20000
    285.53,  2777.50000,  1814.90000
    286.02,  2751.60000,  1807.50000
    286.50,  2768.00000,  1817.00000
    286.99,  2789.80000,  1815.00000
    287.47,  2785.50000,  1817.00000
    287.95,  2782.80000,  1816.40000
    288.44,  2773.50000,  1820.50000
    288.92,  2760.20000,  1829.80000
    289.41,  2770.40000,  1835.20000
    289.89,  2795.10000,  1828.80000
    290.37,  2813.40000,  1811.60000
    290.86,  2836.90000,  1808.50000
    291.34,  2799.20000,  1816.20000
    291.82,  2783.30000,  1807.10000
    292.31,  2764.10000,  1781.80000
    292.79,  2772.20000,  1777.50000
    293.28,  2779.90000,  1758.10000
    293.76,  2788.70000,  1762.80000
    294.24,  2783.00000,  1768.50000
    294.73,  2808.70000,  1755.10000
    295.21,  2819.90000,  1733.80000
    295.69,  2832.20000,  1728.10000
    296.18,  2811.30000,  1706.50000
    296.66,  2770.00000,  1692.60000
    297.14,  2759.40000,  1682.50000
    297.63,  2774.20000,  1667.70000
    298.11,  2788.00000,  1659.60000
    298.59,  2820.80000,  1657.80000
    299.08,  2830.30000,  1650.40000
    299.56,  2827.90000,  1636.40000
    300.04,  2840.20000,  1635.20000
    300.53,  2843.00000,  1620.80000
    301.01,  2838.50000,  1606.10000
    301.49,  2825.10000,  1606.30000
    301.98,  2795.70000,  1599.60000
    302.46,  2776.30000,  1584.30000
    302.94,  2776.60000,  1572.90000
    303.42,  2774.30000,  1565.60000
    303.91,  2761.30000,  1550.60000
    304.39,  2741.00000,  1546.40000
    304.87,  2746.50000,  1530.80000
    305.36,  2775.60000,  1525.40000
    305.84,  2810.90000,  1520.40000
    306.32,  2843.90000,  1529.10000
    306.81,  2824.50000,  1524.90000
    307.29,  2792.20000,  1521.60000
    307.77,  2779.90000,  1503.20000
    308.25,  2786.00000,  1495.50000
    308.74,  2800.30000,  1487.10000
    309.22,  2803.00000,  1478.80000
    309.70,  2791.70000,  1465.80000
    310.18,  2784.90000,  1451.30000
    310.67,  2788.60000,  1448.70000
    311.15,  2809.10000,  1437.90000
    311.63,  2816.10000,  1432.50000
    312.12,  2817.60000,  1435.30000
    312.60,  2790.30000,  1427.80000
    313.08,  2772.60000,  1412.60000
    313.56,  2758.50000,  1416.40000
    314.05,  2758.70000,  1413.70000
    314.53,  2778.10000,  1407.30000
    315.01,  2836.30000,  1402.00000
    315.49,  2833.20000,  1398.40000
    315.98,  2837.10000,  1389.20000
    316.46,  2807.30000,  1396.60000
    316.94,  2764.40000,  1405.90000
    317.42,  2751.60000,  1402.90000
    317.90,  2758.70000,  1394.40000
    318.39,  2734.00000,  1402.50000
    318.87,  2780.50000,  1398.40000
    319.35,  2791.60000,  1405.20000
    319.83,  2802.90000,  1399.90000
    320.32,  2819.00000,  1393.10000
    320.80,  2827.50000,  1381.50000
    321.28,  2784.40000,  1388.10000
    321.76,  2828.80000,  1374.90000
    322.24,  2830.00000,  1363.60000
    322.73,  2850.10000,  1349.20000
    323.21,  2856.20000,  1349.90000
    323.69,  2857.40000,  1351.50000
    324.17,  2802.70000,  1367.00000
    324.65,  2771.20000,  1365.60000
    325.14,  2772.60000,  1365.60000
    325.62,  2787.40000,  1358.50000
    326.10,  2840.90000,  1356.00000
    326.58,  2856.90000,  1363.40000
    327.06,  2815.60000,  1365.00000
    327.55,  2820.10000,  1369.10000
    328.03,  2845.10000,  1375.70000
    328.51,  2855.20000,  1373.40000
    328.99,  2876.70000,  1366.10000
    329.47,  2860.50000,  1366.90000
    329.95,  2783.60000,  1359.90000
    330.44,  2792.20000,  1358.00000
    330.92,  2759.70000,  1363.40000
    331.40,  2747.40000,  1356.60000
    331.88,  2742.00000,  1351.90000
    332.36,  2753.10000,  1346.50000
    332.84,  2770.00000,  1352.50000
    333.33,  2817.80000,  1347.10000
    333.81,  2821.30000,  1355.70000
    334.29,  2839.30000,  1342.10000
    334.77,  2844.80000,  1338.10000
    335.25,  2833.10000,  1329.60000
    335.73,  2841.70000,  1329.90000
    336.21,  2836.00000,  1323.50000
    336.69,  2814.30000,  1332.30000
    337.18,  2800.00000,  1329.20000
    337.66,  2783.30000,  1326.30000
    338.14,  2756.00000,  1335.60000
    338.62,  2745.00000,  1333.60000
    339.10,  2766.50000,  1338.50000
    339.58,  2812.60000,  1331.20000
    340.06,  2833.50000,  1316.20000
    340.54,  2846.60000,  1305.60000
    341.03,  2830.00000,  1313.20000
    341.51,  2798.70000,  1309.10000
    341.99,  2793.30000,  1318.90000
    342.47,  2809.30000,  1307.80000
    342.95,  2810.10000,  1300.50000
    343.43,  2807.30000,  1306.70000
    343.91,  2808.00000,  1311.30000
    344.39,  2783.70000,  1311.00000
    344.87,  2764.80000,  1311.80000
    345.35,  2779.40000,  1303.70000
    345.84,  2790.30000,  1304.30000
    346.32,  2829.40000,  1308.60000
    346.80,  2848.20000,  1305.50000
    347.28,  2848.80000,  1298.10000
    347.76,  2820.70000,  1298.10000
    348.24,  2816.60000,  1298.80000
    348.72,  2837.60000,  1304.10000
    349.20,  2857.40000,  1306.30000
    349.68,  2841.70000,  1308.20000
    350.16,  2809.60000,  1309.80000
    350.64,  2761.00000,  1311.30000
    351.12,  2750.00000,  1311.00000
    351.60,  2806.90000,  1309.60000
    352.08,  2849.60000,  1306.00000
    352.56,  2876.90000,  1301.40000
    353.04,  2870.50000,  1293.80000
    353.53,  2845.30000,  1296.30000
    354.01,  2820.80000,  1301.40000
    354.49,  2832.50000,  1302.90000
    354.97,  2829.10000,  1297.90000
    355.45,  2835.90000,  1284.60000
    355.93,  2816.30000,  1284.40000
    356.41,  2830.70000,  1297.90000
    356.89,  2811.70000,  1305.10000
    357.37,  2821.50000,  1309.80000
    357.85,  2796.40000,  1297.90000
    358.33,  2788.60000,  1280.90000
    358.81,  2765.40000,  1283.80000
    359.29,  2784.20000,  1288.10000
    359.77,  2800.50000,  1301.80000
    360.25,  2823.90000,  1312.50000
    360.73,  2817.80000,  1311.30000
    361.21,  2810.20000,  1311.80000
    361.69,  2818.50000,  1311.20000
    362.17,  2815.90000,  1322.30000
    362.65,  2825.30000,  1330.30000
    363.13,  2826.40000,  1331.60000
    363.61,  2832.90000,  1318.40000
    364.09,  2803.80000,  1312.00000
    364.57,  2804.20000,  1301.70000
    365.05,  2803.70000,  1303.30000
    365.53,  2789.60000,  1300.30000
    366.01,  2808.70000,  1302.40000
    366.49,  2855.20000,  1290.20000
    366.97,  2812.00000,  1293.90000
    367.45,  2824.80000,  1305.10000
    367.93,  2849.80000,  1311.30000
    368.41,  2832.50000,  1319.40000
    368.89,  2833.80000,  1315.60000
    369.37,  2838.00000,  1307.80000
    369.85,  2783.20000,  1302.90000
    370.33,  2799.30000,  1313.00000
    370.80,  2819.00000,  1323.90000
    371.28,  2823.50000,  1329.70000
    371.76,  2802.00000,  1321.40000
    372.24,  2783.20000,  1309.00000
    372.72,  2781.40000,  1298.90000
    373.20,  2797.60000,  1302.50000
    373.68,  2825.20000,  1309.10000
    374.16,  2856.00000,  1304.50000
    374.64,  2833.30000,  1310.40000
    375.12,  2807.50000,  1309.80000
    375.60,  2831.70000,  1326.20000
    376.08,  2809.20000,  1332.90000
    376.56,  2805.60000,  1330.90000
    377.04,  2800.70000,  1322.10000
    377.52,  2799.80000,  1326.00000
    377.99,  2793.20000,  1328.00000
    378.47,  2821.80000,  1340.70000
    378.95,  2801.80000,  1351.40000
    379.43,  2827.10000,  1346.20000
    379.91,  2828.60000,  1339.90000
    380.39,  2878.70000,  1338.20000
    380.87,  2901.80000,  1336.40000
    381.35,  2894.60000,  1327.90000
    381.83,  2856.40000,  1339.30000
    382.31,  2824.40000,  1343.30000
    382.79,  2784.20000,  1351.20000
    383.26,  2803.10000,  1354.20000
    383.74,  2803.30000,  1355.50000
    384.22,  2798.70000,  1350.10000
    384.70,  2798.60000,  1354.20000
    385.18,  2766.60000,  1367.40000
    385.66,  2776.80000,  1378.20000
    386.14,  2788.30000,  1382.70000
    386.62,  2800.30000,  1385.00000
    387.09,  2816.00000,  1391.70000
    387.57,  2831.60000,  1375.90000
    388.05,  2824.50000,  1369.80000
    388.53,  2827.30000,  1365.80000
    389.01,  2827.40000,  1365.20000
    389.49,  2837.70000,  1376.10000
    389.97,  2836.80000,  1386.30000
    390.44,  2828.60000,  1384.90000
    390.92,  2808.70000,  1392.30000
    391.40,  2790.30000,  1392.40000
    391.88,  2789.60000,  1386.00000
    392.36,  2797.70000,  1393.10000
    392.84,  2813.00000,  1377.50000
    393.32,  2828.90000,  1380.10000
    393.79,  2819.30000,  1388.90000
    394.27,  2866.60000,  1397.20000
    394.75,  2862.70000,  1409.30000
    395.23,  2856.30000,  1419.70000
    395.71,  2838.80000,  1413.50000
    396.18,  2840.90000,  1414.70000
    396.66,  2848.60000,  1417.40000
    397.14,  2883.80000,  1418.90000
    397.62,  2850.10000,  1422.10000
    398.10,  2843.70000,  1411.40000
    398.58,  2822.30000,  1406.30000
    399.05,  2838.70000,  1393.10000
    399.53,  2850.90000,  1390.40000
    400.01,  2848.20000,  1393.30000
    400.49,  2818.80000,  1399.90000
    400.97,  2800.60000,  1406.50000
    401.44,  2762.50000,  1419.20000
    401.92,  2785.30000,  1422.70000
    402.40,  2789.20000,  1418.10000
    402.88,  2818.70000,  1414.10000
    403.36,  2831.30000,  1409.30000
    403.83,  2848.50000,  1408.00000
    404.31,  2812.40000,  1410.30000
    404.79,  2816.60000,  1412.70000
    405.27,  2799.00000,  1405.50000
    405.74,  2789.00000,  1404.70000
    406.22,  2814.40000,  1408.60000
    406.70,  2842.70000,  1397.70000
    407.18,  2828.10000,  1390.80000
    407.65,  2813.70000,  1382.30000
    408.13,  2785.30000,  1375.10000
    408.61,  2784.40000,  1380.20000
    409.09,  2799.10000,  1387.00000
    409.56,  2810.30000,  1374.40000
    410.04,  2821.90000,  1366.10000
    410.52,  2818.30000,  1356.30000
    411.00,  2795.50000,  1355.00000
    411.47,  2798.70000,  1349.20000
    411.95,  2787.30000,  1355.30000
    412.43,  2787.10000,  1363.10000
    412.91,  2786.20000,  1367.40000
    413.38,  2799.30000,  1364.70000
    413.86,  2806.50000,  1365.20000
    414.34,  2811.00000,  1349.30000
    414.82,  2815.00000,  1352.30000
    415.29,  2809.10000,  1358.10000
    415.77,  2817.10000,  1362.30000
    416.25,  2815.50000,  1364.70000
    416.72,  2821.70000,  1348.60000
    417.20,  2812.50000,  1336.40000
    417.68,  2780.40000,  1333.10000
    418.16,  2776.90000,  1331.00000
    418.63,  2806.20000,  1331.50000
    419.11,  2802.60000,  1338.40000
    419.59,  2811.90000,  1325.90000
    420.06,  2784.30000,  1321.90000
    420.54,  2749.80000,  1315.90000
    421.02,  2773.90000,  1305.80000
    421.50,  2802.60000,  1305.70000
    421.97,  2812.40000,  1302.80000
    422.45,  2803.30000,  1308.50000
    422.93,  2787.80000,  1312.40000
    423.40,  2764.60000,  1317.60000
    423.88,  2769.80000,  1313.80000
    424.36,  2778.00000,  1312.40000
    424.83,  2798.30000,  1302.50000
    425.31,  2818.30000,  1294.20000
    425.79,  2869.50000,  1293.60000
    426.26,  2903.40000,  1299.40000
    426.74,  2881.30000,  1299.50000
    427.22,  2860.00000,  1295.00000
    427.69,  2835.00000,  1303.00000
    428.17,  2812.40000,  1298.90000
    428.65,  2795.40000,  1303.90000
    429.12,  2835.90000,  1298.60000
    429.60,  2816.70000,  1303.90000
    430.08,  2819.30000,  1303.70000
    430.55,  2821.50000,  1303.50000
    431.03,  2825.40000,  1289.60000
    431.50,  2821.20000,  1283.70000
    431.98,  2829.70000,  1268.70000
    432.46,  2837.30000,  1271.40000
    432.93,  2808.70000,  1291.00000
    433.41,  2788.10000,  1292.50000
    433.89,  2784.30000,  1289.60000
    434.36,  2791.90000,  1287.30000
    434.84,  2783.40000,  1280.10000
    435.31,  2810.00000,  1269.90000
    435.79,  2797.40000,  1287.10000
    436.27,  2781.10000,  1295.80000
    436.74,  2782.80000,  1295.80000
    437.22,  2793.40000,  1293.30000
    437.70,  2793.40000,  1282.70000
    438.17,  2794.90000,  1273.80000
    438.65,  2792.20000,  1271.80000
    439.12,  2799.00000,  1273.00000
    439.60,  2805.90000,  1262.10000
    440.08,  2810.80000,  1278.50000
    440.55,  2793.70000,  1283.60000
    441.03,  2802.20000,  1295.30000
    441.50,  2801.80000,  1288.40000
    441.98,  2816.80000,  1280.70000
    442.45,  2810.50000,  1269.60000
    442.93,  2801.00000,  1287.50000
    443.41,  2785.10000,  1287.20000
    443.88,  2793.40000,  1282.00000
    444.36,  2788.70000,  1268.00000
    444.83,  2794.30000,  1261.00000
    445.31,  2794.80000,  1265.40000
    445.78,  2772.30000,  1274.20000
    446.26,  2768.70000,  1284.80000
    446.74,  2764.60000,  1285.30000
    447.21,  2785.10000,  1284.80000
    447.69,  2812.60000,  1279.50000
    448.16,  2838.90000,  1279.50000
    448.64,  2817.40000,  1279.80000
    449.11,  2795.00000,  1284.10000
    449.59,  2792.50000,  1279.20000
    450.06,  2791.40000,  1284.80000
    450.54,  2793.50000,  1278.90000
    451.02,  2828.30000,  1277.70000
    451.49,  2832.10000,  1287.80000
    451.97,  2827.00000,  1288.40000
    452.44,  2816.70000,  1291.90000
    452.92,  2801.60000,  1296.20000
    453.39,  2788.40000,  1276.80000
    453.87,  2800.20000,  1274.50000
    454.34,  2804.10000,  1274.20000
    454.82,  2807.90000,  1281.10000
    455.29,  2814.50000,  1284.10000
    455.77,  2824.00000,  1291.50000
    456.24,  2803.50000,  1279.50000
    456.72,  2780.90000,  1284.10000
    457.19,  2777.20000,  1281.30000
    457.67,  2784.30000,  1281.00000
    458.14,  2812.20000,  1272.80000
    458.62,  2810.90000,  1286.00000
    459.09,  2797.30000,  1285.40000
    459.57,  2776.70000,  1282.00000
    460.04,  2787.00000,  1282.10000
    460.52,  2793.00000,  1278.00000
    460.99,  2788.60000,  1281.20000
    461.47,  2779.70000,  1289.20000
    461.94,  2752.80000,  1297.40000
    462.42,  2751.90000,  1291.50000
    462.89,  2769.00000,  1299.10000
    463.37,  2795.80000,  1288.50000
    463.84,  2799.70000,  1288.00000
    464.32,  2806.30000,  1278.80000
    464.79,  2801.80000,  1274.60000
    465.26,  2806.60000,  1268.40000
    465.74,  2792.20000,  1272.40000
    466.21,  2816.90000,  1267.70000
    466.69,  2825.90000,  1270.20000
    467.16,  2822.50000,  1276.40000
    467.64,  2805.70000,  1280.50000
    468.11,  2787.90000,  1283.50000
    468.59,  2783.60000,  1282.00000
    469.06,  2797.80000,  1288.10000
    469.54,  2832.00000,  1283.00000
    470.01,  2828.30000,  1290.40000
    470.48,  2786.40000,  1290.10000
    470.96,  2802.50000,  1288.30000
    471.43,  2827.90000,  1288.10000
    471.91,  2847.90000,  1283.50000
    472.38,  2881.40000,  1280.40000
    472.86,  2852.20000,  1287.30000
    473.33,  2799.00000,  1285.20000
    473.80,  2792.70000,  1284.40000
    474.28,  2800.70000,  1279.60000
    474.75,  2819.40000,  1261.60000
    475.23,  2848.20000,  1267.70000
    475.70,  2845.70000,  1274.40000
    476.17,  2817.30000,  1284.10000
    476.65,  2814.00000,  1286.20000
    477.12,  2817.60000,  1287.00000
    477.60,  2785.10000,  1281.20000
    478.07,  2789.50000,  1280.50000
    478.54,  2804.80000,  1277.20000
    479.02,  2813.10000,  1272.20000
    479.49,  2839.70000,  1271.30000
    479.97,  2846.00000,  1273.50000
    480.44,  2827.50000,  1270.90000
    480.91,  2800.40000,  1265.50000
    481.39,  2789.30000,  1268.00000
    481.86,  2791.20000,  1263.20000
    482.34,  2772.30000,  1275.40000
    482.81,  2786.20000,  1288.40000
    483.28,  2818.60000,  1292.80000
    483.76,  2806.60000,  1295.70000
    484.23,  2824.00000,  1297.00000
    484.70,  2816.90000,  1289.10000
    485.18,  2809.80000,  1281.10000
    485.65,  2815.20000,  1293.80000
    486.12,  2823.50000,  1295.00000
    486.60,  2798.40000,  1300.60000
    487.07,  2798.00000,  1297.20000
    487.55,  2817.30000,  1290.80000
    488.02,  2840.80000,  1271.10000
    488.49,  2835.90000,  1284.60000
    488.97,  2845.90000,  1283.90000
    489.44,  2831.70000,  1288.20000
    489.91,  2796.70000,  1285.90000
    490.39,  2794.10000,  1276.70000
    490.86,  2763.00000,  1264.50000
    491.33,  2726.00000,  1273.20000
    491.81,  2763.30000,  1283.50000
    492.28,  2802.00000,  1283.60000
    492.75,  2799.10000,  1275.40000
    493.23,  2848.70000,  1268.80000
    493.70,  2867.30000,  1261.20000
    494.17,  2861.20000,  1260.00000
    494.64,  2853.60000,  1277.60000
    495.12,  2816.30000,  1278.80000
    495.59,  2817.50000,  1279.70000
    496.06,  2849.30000,  1287.80000
    496.54,  2870.10000,  1287.20000
    497.01,  2849.50000,  1287.50000
    497.48,  2828.70000,  1295.70000
    497.96,  2798.90000,  1290.80000
    498.43,  2824.30000,  1290.00000
    498.90,  2825.80000,  1293.10000
    499.37,  2849.40000,  1294.20000
    499.85,  2822.80000,  1285.20000
    500.32,  2821.80000,  1282.70000
    500.79,  2805.30000,  1274.40000
    501.27,  2812.40000,  1267.10000
    501.74,  2810.00000,  1266.30000
    502.21,  2809.20000,  1272.40000
    502.68,  2798.80000,  1270.50000
    503.16,  2792.40000,  1269.50000
    503.63,  2784.70000,  1265.00000
    504.10,  2795.50000,  1262.40000
    504.57,  2787.70000,  1255.70000
    505.05,  2797.60000,  1258.60000
    505.52,  2814.80000,  1261.90000
    505.99,  2809.10000,  1268.10000
    506.46,  2808.30000,  1267.60000
    506.94,  2798.90000,  1266.30000
    507.41,  2786.50000,  1264.50000
    507.88,  2794.00000,  1261.80000
    508.35,  2792.30000,  1254.40000
    508.83,  2778.30000,  1255.20000
    509.30,  2806.00000,  1251.00000
    509.77,  2809.50000,  1247.60000
    510.24,  2805.90000,  1258.40000
    510.72,  2797.30000,  1254.40000
    511.19,  2789.70000,  1250.30000
    511.66,  2791.80000,  1245.50000
    512.13,  2819.80000,  1244.10000
    512.60,  2806.60000,  1251.70000
    513.08,  2789.60000,  1263.80000
    513.55,  2779.40000,  1260.10000
    514.02,  2767.60000,  1256.70000
    514.49,  2772.20000,  1250.50000
    514.97,  2784.80000,  1242.40000
    515.44,  2796.20000,  1251.90000
    515.91,  2785.90000,  1258.70000
    516.38,  2783.50000,  1259.30000
    516.85,  2752.80000,  1255.00000
    517.33,  2734.90000,  1250.20000
    517.80,  2741.60000,  1239.10000
    518.27,  2771.60000,  1233.20000
    518.74,  2817.00000,  1232.80000
    519.21,  2839.70000,  1243.70000
    519.68,  2816.80000,  1257.30000
    520.16,  2789.10000,  1258.90000
    520.63,  2769.20000,  1262.20000
    521.10,  2760.30000,  1255.90000
    521.57,  2782.70000,  1263.60000
    522.04,  2785.90000,  1272.40000
    522.52,  2781.50000,  1276.80000
    522.99,  2779.30000,  1259.10000
    523.46,  2800.40000,  1260.30000
    523.93,  2810.20000,  1258.80000
    524.40,  2834.40000,  1265.90000
    524.87,  2825.00000,  1264.40000
    525.34,  2807.20000,  1266.50000
    525.82,  2798.00000,  1256.50000
    526.29,  2810.30000,  1254.00000
    526.76,  2799.80000,  1264.60000
    527.23,  2811.80000,  1273.50000
    527.70,  2791.10000,  1280.20000
    528.17,  2784.70000,  1286.40000
    528.64,  2782.00000,  1279.50000
    529.12,  2793.70000,  1266.90000
    529.59,  2789.10000,  1268.80000
    530.06,  2797.00000,  1268.80000
    530.53,  2837.10000,  1272.60000
    531.00,  2812.00000,  1278.90000
    531.47,  2771.40000,  1281.70000
    531.94,  2764.40000,  1282.90000
    532.41,  2756.40000,  1283.60000
    532.89,  2769.40000,  1303.40000
    533.36,  2830.90000,  1309.70000
    533.83,  2811.70000,  1317.30000
    534.30,  2796.50000,  1318.40000
    534.77,  2811.20000,  1314.90000
    535.24,  2815.50000,  1309.60000
    535.71,  2808.60000,  1321.30000
    536.18,  2821.20000,  1320.60000
    536.65,  2817.00000,  1317.50000
    537.13,  2789.30000,  1318.20000
    537.60,  2776.70000,  1313.50000
    538.07,  2773.50000,  1316.20000
    538.54,  2761.60000,  1326.90000
    539.01,  2778.70000,  1345.20000
    539.48,  2811.90000,  1360.20000
    539.95,  2818.00000,  1377.80000
    540.42,  2825.70000,  1369.80000
    540.89,  2800.20000,  1379.30000
    541.36,  2778.10000,  1382.10000
    541.83,  2774.50000,  1381.40000
    542.30,  2775.50000,  1382.60000
    542.77,  2785.20000,  1384.80000
    543.25,  2813.60000,  1377.30000
    543.72,  2814.60000,  1391.10000
    544.19,  2817.30000,  1393.70000
    544.66,  2801.90000,  1390.20000
    545.13,  2786.10000,  1399.70000
    545.60,  2765.90000,  1404.00000
    546.07,  2794.70000,  1400.00000
    546.54,  2804.80000,  1412.90000
    547.01,  2813.00000,  1414.20000
    547.48,  2814.70000,  1413.20000
    547.95,  2803.10000,  1417.00000
    548.42,  2779.70000,  1420.50000
    548.89,  2812.00000,  1424.40000
    549.36,  2794.20000,  1443.40000
    549.83,  2783.30000,  1445.60000
    550.30,  2834.20000,  1449.60000
    550.77,  2842.10000,  1449.90000
    551.24,  2841.10000,  1457.40000
    551.71,  2851.50000,  1461.60000
    552.18,  2814.00000,  1466.20000
    552.65,  2760.90000,  1471.00000
    553.12,  2787.70000,  1477.90000
    553.59,  2792.70000,  1481.10000
    554.06,  2803.20000,  1474.40000
    554.53,  2810.20000,  1471.20000
    555.00,  2805.10000,  1470.20000
    555.47,  2799.10000,  1478.40000
    555.94,  2793.20000,  1487.90000
    556.41,  2785.30000,  1497.80000
    556.88,  2776.70000,  1492.80000
    557.35,  2767.50000,  1494.80000
    557.82,  2758.90000,  1493.20000
    558.29,  2774.90000,  1487.00000
    558.76,  2819.40000,  1480.70000
    559.23,  2838.50000,  1477.30000
    559.70,  2845.70000,  1471.20000
    560.17,  2834.50000,  1468.80000
    560.64,  2815.70000,  1478.10000
    561.11,  2793.90000,  1492.30000
    561.58,  2814.20000,  1499.80000
    562.05,  2796.70000,  1503.30000
    562.52,  2805.40000,  1504.90000
    562.99,  2811.20000,  1494.40000
    563.46,  2822.50000,  1492.80000
    563.93,  2813.80000,  1496.30000
    564.40,  2816.90000,  1501.70000
    564.87,  2811.90000,  1510.40000
    565.34,  2832.70000,  1510.20000
    565.81,  2822.50000,  1501.20000
    566.28,  2815.50000,  1497.80000
    566.74,  2789.10000,  1493.00000
    567.21,  2779.20000,  1495.60000
    567.68,  2787.00000,  1504.20000
    568.15,  2790.40000,  1497.80000
    568.62,  2783.90000,  1507.00000
    569.09,  2786.60000,  1505.00000
    569.56,  2778.60000,  1507.00000
    570.03,  2776.60000,  1509.20000
    570.50,  2810.10000,  1502.10000
    570.97,  2807.40000,  1489.00000
    571.44,  2799.10000,  1494.10000
    571.91,  2805.00000,  1491.00000
    572.38,  2801.50000,  1490.50000
    572.84,  2780.30000,  1501.20000
    573.31,  2796.60000,  1497.70000
    573.78,  2796.70000,  1489.10000
    574.25,  2794.90000,  1479.30000
    574.72,  2808.80000,  1480.00000
    575.19,  2805.40000,  1475.70000
    575.66,  2796.20000,  1487.20000
    576.13,  2789.90000,  1485.00000
    576.60,  2799.70000,  1481.00000
    577.07,  2830.00000,  1471.20000
    577.53,  2853.70000,  1468.30000
    578.00,  2848.90000,  1467.00000
    578.47,  2840.30000,  1465.20000
    578.94,  2810.00000,  1463.70000
    579.41,  2783.40000,  1459.90000
    579.88,  2797.90000,  1463.40000
    580.35,  2809.80000,  1459.10000
    580.82,  2809.90000,  1460.90000
    581.28,  2826.30000,  1456.10000
    581.75,  2824.40000,  1454.00000
    582.22,  2816.60000,  1447.40000
    582.69,  2821.50000,  1450.90000
    583.16,  2818.00000,  1454.20000
    583.63,  2798.60000,  1462.80000
    584.10,  2823.30000,  1464.00000
    584.56,  2841.60000,  1456.80000
    585.03,  2828.90000,  1457.80000
    585.50,  2821.20000,  1463.00000
    585.97,  2790.50000,  1469.40000
    586.44,  2783.90000,  1465.30000
    586.91,  2801.90000,  1462.10000
    587.37,  2813.10000,  1436.70000
    587.84,  2793.00000,  1430.80000
    588.31,  2776.90000,  1441.30000
    588.78,  2750.70000,  1441.30000
    589.25,  2779.60000,  1445.20000
    589.72,  2780.60000,  1443.00000
    590.18,  2813.90000,  1425.30000
    590.65,  2838.70000,  1420.40000
    591.12,  2819.30000,  1427.70000
    591.59,  2823.40000,  1422.00000
    592.06,  2804.00000,  1427.50000
    592.52,  2763.40000,  1430.70000
    592.99,  2774.50000,  1438.50000
    593.46,  2770.00000,  1448.70000
    593.93,  2728.10000,  1458.80000
    594.40,  2758.50000,  1456.40000
    594.86,  2783.70000,  1446.10000
    595.33,  2804.10000,  1428.60000
    595.80,  2828.00000,  1420.50000
    596.27,  2829.10000,  1416.60000
    596.74,  2808.60000,  1418.10000
    597.20,  2798.80000,  1419.00000
    597.67,  2810.60000,  1430.40000
    598.14,  2793.30000,  1427.10000
    598.61,  2789.70000,  1428.20000
    599.07,  2787.50000,  1425.90000
    599.54,  2779.80000,  1418.20000
    600.01,  2765.10000,  1407.70000
    600.48,  2820.20000,  1411.50000
    600.95,  2842.00000,  1407.90000
    601.41,  2850.60000,  1411.90000
    601.88,  2835.20000,  1414.70000
    602.35,  2784.80000,  1411.90000
    602.82,  2731.60000,  1410.50000
    603.28,  2743.60000,  1413.00000
    603.75,  2738.80000,  1415.40000
    604.22,  2756.90000,  1420.60000
    604.69,  2770.20000,  1415.70000
    605.15,  2784.60000,  1406.50000
    605.62,  2778.50000,  1406.50000
    606.09,  2778.70000,  1408.20000
    606.56,  2766.50000,  1401.20000
    607.02,  2776.10000,  1387.90000
    607.49,  2765.30000,  1387.00000
    607.96,  2791.80000,  1379.80000
    608.42,  2780.70000,  1386.00000
    608.89,  2835.40000,  1378.80000
    609.36,  2851.80000,  1375.00000
    609.83,  2846.50000,  1367.10000
    610.29,  2808.00000,  1372.40000
    610.76,  2779.30000,  1378.70000
    611.23,  2756.80000,  1377.70000
    611.69,  2786.00000,  1368.80000
    612.16,  2792.50000,  1362.60000
    612.63,  2796.60000,  1353.40000
    613.10,  2782.60000,  1346.80000
    613.56,  2765.40000,  1355.00000
    614.03,  2773.60000,  1353.30000
    614.50,  2775.40000,  1361.20000
    614.96,  2781.80000,  1356.80000
    615.43,  2786.70000,  1353.20000
    615.90,  2802.30000,  1349.50000
    616.36,  2807.90000,  1342.80000
    616.83,  2791.70000,  1339.90000
    617.30,  2780.90000,  1342.90000
    617.76,  2752.40000,  1340.40000
    618.23,  2734.80000,  1335.70000
    618.70,  2735.40000,  1330.70000
    619.16,  2755.90000,  1319.40000
    619.63,  2753.40000,  1312.50000
    620.10,  2756.50000,  1310.10000
    620.56,  2756.10000,  1303.30000
    621.03,  2783.10000,  1293.50000
    621.50,  2787.30000,  1300.80000
    621.96,  2793.20000,  1309.80000
    622.43,  2790.40000,  1309.90000
    622.90,  2789.90000,  1315.30000
    623.36,  2801.90000,  1312.70000
    623.83,  2805.50000,  1312.90000
    624.30,  2790.30000,  1315.00000
    624.76,  2793.40000,  1294.70000
    625.23,  2806.70000,  1270.70000
    625.70,  2821.30000,  1263.40000
    626.16,  2826.70000,  1261.80000
    626.63,  2791.00000,  1270.80000
    627.09,  2772.20000,  1285.60000
    627.56,  2785.10000,  1279.80000
    628.03,  2786.70000,  1274.20000
    628.49,  2800.40000,  1265.60000
    628.96,  2781.20000,  1263.30000
    629.43,  2774.90000,  1256.10000
    629.89,  2762.80000,  1260.10000
    630.36,  2769.50000,  1261.40000
    630.82,  2764.20000,  1261.80000
    631.29,  2772.20000,  1260.40000
    631.76,  2756.60000,  1261.50000
    632.22,  2746.90000,  1258.50000
    632.69,  2747.60000,  1252.70000
    633.15,  2771.10000,  1242.40000
    633.62,  2799.60000,  1235.90000
    634.09,  2816.40000,  1231.90000
    634.55,  2816.30000,  1221.70000
    635.02,  2789.70000,  1225.00000
    635.48,  2779.50000,  1219.30000
    635.95,  2778.70000,  1213.40000
    636.42,  2790.40000,  1209.80000
    636.88,  2780.10000,  1203.60000
    637.35,  2775.10000,  1202.70000
    637.81,  2786.30000,  1209.30000
    638.28,  2785.20000,  1211.10000
    638.74,  2796.40000,  1220.40000
    639.21,  2802.10000,  1218.20000
    639.68,  2776.80000,  1217.20000
    640.14,  2756.40000,  1213.70000
    640.61,  2777.90000,  1203.90000
    641.07,  2752.70000,  1208.00000
    641.54,  2771.60000,  1212.00000
    642.00,  2778.80000,  1215.20000
    642.47,  2791.40000,  1208.60000
    642.93,  2792.40000,  1197.70000
    643.40,  2799.60000,  1188.10000
    643.87,  2778.40000,  1186.20000
    644.33,  2781.90000,  1190.50000
    644.80,  2781.00000,  1201.00000
    645.26,  2774.70000,  1194.00000
    645.73,  2764.30000,  1192.50000
    646.19,  2756.40000,  1201.30000
    646.66,  2763.90000,  1187.70000
    647.12,  2754.90000,  1184.60000
    647.59,  2765.00000,  1178.30000
    648.05,  2773.40000,  1171.90000
    648.52,  2768.30000,  1174.10000
    648.98,  2767.40000,  1180.70000
    649.45,  2762.30000,  1171.60000
    649.91,  2744.10000,  1171.80000
    650.38,  2747.90000,  1169.90000
    650.84,  2790.10000,  1163.80000
    651.31,  2785.90000,  1164.90000
    651.77,  2786.70000,  1155.60000
    652.24,  2760.20000,  1158.60000
    652.70,  2744.10000,  1159.80000
    653.17,  2728.40000,  1170.50000
    653.63,  2759.40000,  1158.60000
    654.10,  2748.80000,  1160.90000
    654.56,  2767.90000,  1149.50000
    655.03,  2760.80000,  1150.10000
    655.49,  2769.80000,  1143.00000
    655.96,  2764.50000,  1147.70000
    656.42,  2760.00000,  1146.60000
    656.89,  2741.10000,  1154.90000
    657.35,  2792.80000,  1166.20000
    657.82,  2835.90000,  1164.20000
    658.28,  2869.80000,  1151.50000
    658.75,  2884.70000,  1141.40000
    659.21,  2844.40000,  1137.80000
    659.68,  2808.60000,  1125.50000
    660.14,  2794.30000,  1132.10000
    660.61,  2763.60000,  1130.50000
    661.07,  2793.20000,  1132.20000
    661.53,  2809.10000,  1130.60000
    662.00,  2831.50000,  1123.50000
    662.46,  2822.90000,  1117.40000
    662.93,  2802.70000,  1119.40000
    663.39,  2767.20000,  1120.30000
    663.86,  2798.20000,  1122.40000
    664.32,  2801.40000,  1112.40000
    664.79,  2833.80000,  1098.60000
    665.25,  2821.70000,  1100.20000
    665.71,  2802.90000,  1099.80000
    666.18,  2759.30000,  1111.80000
    666.64,  2778.80000,  1119.90000
    667.11,  2773.80000,  1118.40000
    667.57,  2790.20000,  1099.20000
    668.04,  2807.60000,  1082.30000
    668.50,  2798.20000,  1074.00000
    668.96,  2775.50000,  1080.80000
    669.43,  2802.50000,  1085.90000
    669.89,  2785.40000,  1084.80000
    670.36,  2767.80000,  1075.70000
    670.82,  2765.60000,  1072.00000
    671.28,  2767.50000,  1072.00000
    671.75,  2774.50000,  1065.50000
    672.21,  2800.50000,  1065.20000
    672.68,  2807.10000,  1058.60000
    673.14,  2815.90000,  1056.50000
    673.60,  2829.80000,  1055.30000
    674.07,  2804.60000,  1056.00000
    674.53,  2772.50000,  1050.80000
    675.00,  2757.00000,  1050.50000
    675.46,  2745.60000,  1056.50000
    675.92,  2745.90000,  1064.10000
    676.39,  2784.30000,  1071.80000
    676.85,  2783.40000,  1079.70000
    677.31,  2795.80000,  1065.50000
    677.78,  2802.50000,  1046.70000
    678.24,  2792.00000,  1034.40000
    678.70,  2773.50000,  1029.60000
    679.17,  2758.90000,  1031.10000
    679.63,  2733.10000,  1036.10000
    680.10,  2731.90000,  1037.60000
    680.56,  2755.70000,  1036.30000
    681.02,  2756.70000,  1034.30000
    681.49,  2784.20000,  1039.60000
    681.95,  2782.50000,  1040.20000
    682.41,  2773.60000,  1035.80000
    682.88,  2767.00000,  1025.20000
    683.34,  2769.50000,  1010.50000
    683.80,  2749.40000,  1004.80000
    684.27,  2763.00000,  1007.60000
    684.73,  2770.00000,  1012.60000
    685.19,  2784.30000,  1013.20000
    685.66,  2808.90000,  1019.20000
    686.12,  2811.90000,  1012.50000
    686.58,  2828.60000,  1004.60000
    687.05,  2823.30000,   996.10000
    687.51,  2803.90000,   995.70000
    687.97,  2789.20000,   997.50000
    688.44,  2794.20000,  1009.70000
    688.90,  2794.90000,  1000.00000
    689.36,  2799.20000,   993.50000
    689.83,  2804.50000,   987.50000
    690.29,  2811.80000,   981.90000
    690.75,  2819.70000,   987.70000
    691.21,  2830.00000,   989.50000
    691.68,  2811.50000,   987.50000
    692.14,  2777.30000,   992.70000
    692.60,  2787.20000,   993.80000
    693.07,  2773.00000,   988.30000
    693.53,  2787.50000,   986.70000
    693.99,  2811.60000,   971.70000
    694.45,  2807.70000,   967.40000
    694.92,  2819.90000,   972.30000
    695.38,  2826.10000,   979.50000
    695.84,  2803.20000,   982.40000
    696.31,  2789.20000,   986.70000
    696.77,  2811.20000,   976.20000
    697.23,  2808.70000,   973.30000
    697.69,  2815.40000,   966.50000
    698.16,  2796.50000,   960.00000
    698.62,  2773.40000,   960.40000
    699.08,  2747.60000,   970.20000
    699.54,  2747.60000,   974.10000
    700.01,  2738.30000,   974.30000
    700.47,  2734.10000,   963.00000
    700.93,  2739.80000,   953.60000
    701.39,  2747.40000,   957.50000
    701.86,  2758.10000,   966.70000
    702.32,  2768.40000,   952.10000
    702.78,  2783.50000,   944.40000
    703.24,  2789.20000,   927.30000
    703.71,  2795.90000,   915.30000
    704.17,  2804.90000,   915.80000
    704.63,  2783.40000,   938.80000
    705.09,  2766.30000,   942.50000
    705.56,  2787.00000,   955.10000
    706.02,  2791.90000,   950.90000
    706.48,  2776.90000,   939.30000
    706.94,  2784.30000,   925.10000
    707.40,  2764.20000,   926.40000
    707.87,  2758.20000,   931.40000
    708.33,  2773.00000,   930.80000
    708.79,  2759.00000,   934.90000
    709.25,  2728.10000,   931.60000
    709.72,  2740.00000,   921.30000
    710.18,  2755.80000,   919.50000
    710.64,  2755.10000,   925.50000
    711.10,  2748.70000,   924.00000
    711.56,  2750.60000,   936.20000
    712.03,  2769.30000,   940.10000
    712.49,  2797.90000,   926.10000
    712.95,  2822.20000,   919.40000
    713.41,  2804.40000,   913.80000
    713.87,  2800.20000,   898.00000
    714.33,  2801.70000,   894.30000
    714.80,  2795.30000,   900.00000
    715.26,  2756.30000,   890.80000
    715.72,  2750.60000,   892.30000
    716.18,  2744.90000,   881.80000
    716.64,  2766.70000,   870.90000
    717.11,  2772.40000,   879.20000
    717.57,  2768.30000,   897.80000
    718.03,  2736.90000,   902.10000
    718.49,  2745.30000,   907.40000
    718.95,  2790.10000,   899.20000
    719.41,  2806.40000,   890.10000
    719.87,  2776.20000,   890.30000
    720.34,  2763.40000,   899.70000
    720.80,  2749.50000,   902.20000
    721.26,  2739.70000,   907.30000
    721.72,  2770.40000,   911.00000
    722.18,  2760.50000,   902.50000
    722.64,  2733.80000,   887.20000
    723.10,  2748.40000,   882.60000
    723.57,  2765.60000,   877.00000
    724.03,  2772.90000,   881.90000
    724.49,  2771.10000,   885.30000
    724.95,  2731.10000,   888.50000
    725.41,  2792.90000,   878.40000
    725.87,  2842.50000,   882.30000
    726.33,  2863.80000,   880.30000
    726.80,  2864.60000,   884.60000
    727.26,  2820.20000,   876.00000
    727.72,  2738.80000,   870.50000
    728.18,  2754.00000,   855.40000
    728.64,  2738.70000,   867.40000
    729.10,  2745.30000,   875.70000
    729.56,  2766.70000,   874.40000
    730.02,  2793.80000,   881.80000
    730.48,  2792.80000,   882.50000
    730.94,  2787.90000,   877.30000
    731.41,  2777.10000,   877.00000
    731.87,  2750.60000,   874.90000
    732.33,  2723.60000,   872.00000
    732.79,  2752.30000,   878.00000
    733.25,  2804.30000,   829.10000
    733.71,  2867.30000,   788.20000
    734.17,  2896.90000,   772.10000
    734.63,  2857.20000,   783.20000
    735.09,  2788.70000,   827.10000
    735.55,  2743.10000,   866.20000
    736.01,  2734.70000,   868.80000
    736.47,  2747.10000,   862.70000
    736.94,  2749.20000,   865.00000
    737.40,  2760.10000,   871.20000
    737.86,  2757.90000,   879.00000
    738.32,  2766.00000,   880.70000
    738.78,  2776.00000,   886.20000
    739.24,  2765.50000,   869.90000
    739.70,  2767.20000,   852.10000
    740.16,  2795.80000,   844.30000
    740.62,  2809.80000,   839.40000
    741.08,  2831.30000,   842.10000
    741.54,  2817.40000,   853.60000
    742.00,  2787.60000,   862.00000
    742.46,  2755.80000,   859.20000
    742.92,  2725.50000,   867.10000
    743.38,  2724.40000,   866.00000
    743.84,  2730.40000,   862.70000
    744.30,  2753.20000,   852.80000
    744.76,  2768.90000,   850.10000
    745.22,  2768.10000,   846.20000
    745.68,  2738.30000,   853.90000
    746.14,  2726.10000,   862.80000
    746.60,  2736.70000,   856.20000
    747.06,  2760.40000,   843.80000
    747.52,  2744.50000,   854.60000
    747.98,  2763.50000,   858.40000
    748.44,  2762.10000,   853.20000
    748.90,  2755.40000,   854.00000
    749.36,  2767.60000,   842.60000
    749.82,  2776.80000,   843.70000
    750.28,  2777.70000,   857.40000
    750.74,  2801.30000,   850.20000
    751.20,  2799.20000,   846.00000
    751.66,  2777.70000,   846.80000
    752.12,  2756.10000,   842.10000
    752.58,  2753.70000,   849.10000
    753.04,  2777.00000,   846.30000
    753.50,  2812.70000,   831.60000
    753.96,  2797.50000,   838.10000
    754.42,  2768.60000,   845.00000
    754.88,  2736.00000,   852.20000
    755.34,  2728.60000,   858.20000
    755.80,  2753.40000,   858.40000
    756.26,  2772.60000,   849.90000
    756.72,  2769.00000,   876.00000
    757.18,  2771.20000,   889.00000
    757.64,  2760.90000,   891.50000
    758.10,  2742.00000,   876.20000
    758.56,  2725.20000,   855.40000
    759.02,  2737.40000,   833.40000
    759.48,  2740.00000,   845.80000
    759.94,  2756.10000,   850.10000
    760.40,  2760.90000,   848.30000
    760.86,  2752.90000,   854.00000
    761.32,  2749.70000,   855.50000
    761.78,  2776.60000,   877.50000
    762.24,  2761.40000,   887.00000
    762.70,  2769.20000,   883.00000
    763.15,  2755.50000,   866.30000
    763.61,  2755.10000,   863.10000
    764.07,  2761.70000,   847.40000
    764.53,  2757.80000,   853.50000
    764.99,  2765.60000,   853.90000
    765.45,  2792.80000,   849.20000
    765.91,  2776.00000,   857.00000
    766.37,  2760.70000,   870.80000
    766.83,  2727.40000,   875.00000
    767.29,  2722.50000,   877.30000
    767.75,  2735.20000,   875.70000
    768.21,  2761.70000,   867.90000
    768.66,  2770.40000,   870.50000
    769.12,  2779.70000,   871.00000
    769.58,  2752.50000,   869.10000
    770.04,  2736.90000,   871.80000
    770.50,  2712.30000,   872.10000
    770.96,  2701.60000,   867.70000
    771.42,  2729.20000,   868.20000
    771.88,  2743.80000,   877.60000
    772.34,  2756.90000,   869.40000
    772.80,  2745.10000,   872.30000
    773.25,  2730.50000,   870.70000
    773.71,  2725.50000,   859.80000
    774.17,  2712.90000,   862.70000
    774.63,  2720.10000,   869.20000
    775.09,  2738.40000,   862.30000
    775.55,  2727.50000,   865.00000
    776.01,  2706.80000,   870.20000
    776.47,  2716.60000,   859.00000
    776.92,  2705.00000,   847.30000
    777.38,  2736.00000,   843.80000
    777.84,  2742.10000,   843.70000
    778.30,  2734.00000,   846.00000
    778.76,  2718.30000,   855.70000
    779.22,  2737.20000,   864.90000
    779.68,  2734.50000,   878.70000
    780.13,  2741.90000,   888.60000
    780.59,  2722.10000,   890.80000
    781.05,  2706.90000,   883.60000
    781.51,  2717.70000,   870.20000
    781.97,  2729.40000,   871.60000
    782.43,  2734.50000,   873.90000
    782.88,  2753.70000,   866.40000
    783.34,  2752.10000,   857.50000
    783.80,  2754.00000,   857.30000
    784.26,  2778.20000,   856.60000
    784.72,  2761.40000,   862.00000
    785.18,  2745.80000,   864.90000
    785.63,  2734.40000,   865.30000
    786.09,  2748.60000,   860.00000
    786.55,  2780.50000,   856.20000
    787.01,  2798.00000,   854.00000
    787.47,  2770.40000,   857.70000
    787.92,  2738.50000,   858.50000
    788.38,  2713.00000,   868.90000
    788.84,  2701.50000,   873.40000
    789.30,  2724.30000,   863.60000
    789.76,  2731.50000,   858.50000
    790.21,  2733.30000,   858.50000
    790.67,  2724.00000,   852.80000
    791.13,  2723.20000,   863.10000
    791.59,  2703.30000,   865.30000
    792.05,  2707.00000,   859.10000
    792.50,  2718.70000,   857.00000
    792.96,  2739.80000,   856.80000
    793.42,  2716.60000,   856.80000
    793.88,  2727.30000,   859.80000
    794.33,  2708.20000,   858.30000
    794.79,  2708.50000,   855.20000
    795.25,  2718.90000,   847.80000
    795.71,  2735.70000,   845.10000
    796.17,  2733.90000,   848.80000
    796.62,  2740.50000,   852.30000
    797.08,  2714.50000,   851.00000
    797.54,  2709.90000,   853.50000
    798.00,  2702.00000,   852.90000
    798.45,  2703.50000,   872.70000
    798.91,  2711.60000,   876.60000
    799.37,  2722.50000,   874.40000
    799.83,  2723.20000,   859.10000
    800.28,  2720.90000,   838.10000
    800.74,  2716.90000,   827.00000
    801.20,  2737.10000,   831.20000
    801.66,  2716.10000,   829.90000
    802.11,  2717.90000,   842.30000
    802.57,  2723.00000,   854.40000
    803.03,  2700.40000,   862.30000
    803.48,  2682.00000,   867.70000
    803.94,  2746.40000,   860.10000
    804.40,  2764.50000,   852.60000
    804.86,  2789.70000,   848.70000
    805.31,  2772.30000,   855.40000
    805.77,  2724.20000,   861.10000
    806.23,  2670.60000,   854.30000
    806.69,  2700.10000,   848.60000
    807.14,  2710.10000,   843.10000
    807.60,  2730.60000,   839.10000
    808.06,  2731.40000,   847.80000
    808.51,  2728.40000,   852.90000
    808.97,  2693.10000,   855.00000
    809.43,  2691.60000,   851.20000
    809.88,  2686.30000,   852.30000
    810.34,  2682.80000,   843.30000
    810.80,  2712.00000,   835.70000
    811.26,  2733.60000,   837.00000
    811.71,  2717.90000,   846.20000
    812.17,  2740.80000,   841.20000
    812.63,  2733.20000,   837.10000
    813.08,  2712.30000,   821.50000
    813.54,  2714.60000,   810.40000
    814.00,  2718.60000,   808.80000
    814.45,  2710.20000,   820.70000
    814.91,  2731.70000,   828.00000
    815.37,  2715.80000,   833.90000
    815.82,  2703.80000,   838.40000
    816.28,  2692.30000,   843.20000
    816.74,  2696.50000,   841.00000
    817.19,  2673.40000,   834.60000
    817.65,  2694.40000,   823.10000
    818.11,  2712.60000,   818.90000
    818.56,  2715.80000,   823.30000
    819.02,  2703.80000,   825.50000
    819.48,  2704.70000,   831.50000
    819.93,  2669.40000,   827.40000
    820.39,  2702.30000,   819.70000
    820.84,  2733.50000,   822.20000
    821.30,  2754.80000,   819.80000
    821.76,  2757.20000,   820.00000
    822.21,  2766.50000,   814.00000
    822.67,  2741.20000,   813.60000
    823.13,  2708.20000,   811.10000
    823.58,  2723.10000,   811.90000
    824.04,  2740.50000,   812.00000
    824.49,  2730.00000,   819.00000
    824.95,  2748.60000,   808.10000
    825.41,  2750.30000,   808.90000
    825.86,  2728.30000,   801.50000
    826.32,  2756.00000,   801.50000
    826.78,  2740.30000,   807.60000
    827.23,  2710.60000,   809.50000
    827.69,  2698.20000,   806.30000
    828.14,  2702.20000,   804.40000
    828.60,  2718.30000,   798.20000
    829.06,  2738.20000,   804.50000
    829.51,  2729.80000,   798.60000
    829.97,  2737.10000,   789.30000
    830.42,  2737.30000,   783.60000
    830.88,  2723.90000,   785.00000
    831.34,  2715.30000,   785.30000
    831.79,  2732.30000,   795.20000
    832.25,  2734.50000,   788.60000
    832.70,  2732.50000,   785.10000
    833.16,  2735.90000,   779.50000
    833.61,  2720.80000,   784.60000
    834.07,  2718.80000,   781.90000
    834.53,  2716.80000,   788.80000
    834.98,  2712.50000,   791.50000
    835.44,  2688.80000,   794.60000
    835.89,  2688.90000,   802.60000
    836.35,  2692.90000,   813.20000
    836.80,  2721.70000,   804.20000
    837.26,  2708.70000,   794.00000
    837.71,  2698.90000,   777.70000
    838.17,  2699.50000,   765.70000
    838.63,  2698.40000,   765.80000
    839.08,  2698.50000,   767.40000
    839.54,  2716.40000,   765.90000
    839.99,  2703.70000,   770.80000
    840.45,  2708.50000,   774.40000
    840.90,  2732.20000,   777.00000
    841.36,  2743.80000,   776.80000
    841.81,  2743.00000,   767.60000
    842.27,  2727.50000,   772.10000
    842.72,  2704.70000,   769.70000
    843.18,  2703.40000,   765.80000
    843.63,  2686.30000,   760.10000
    844.09,  2683.30000,   760.50000
    844.55,  2670.00000,   763.10000
    845.00,  2655.90000,   780.60000
    845.46,  2664.40000,   781.70000
    845.91,  2679.80000,   778.30000
    846.37,  2701.60000,   764.50000
    846.82,  2729.30000,   757.60000
    847.28,  2741.70000,   754.20000
    847.73,  2700.00000,   755.60000
    848.19,  2728.30000,   759.30000
    848.64,  2744.50000,   755.90000
    849.10,  2762.70000,   758.40000
    849.55,  2759.50000,   766.50000
    850.01,  2739.30000,   768.50000
    850.46,  2682.10000,   770.30000
    850.92,  2712.70000,   762.60000
    851.37,  2725.20000,   755.60000
    851.83,  2726.00000,   757.30000
    852.28,  2725.50000,   757.90000
    852.73,  2707.00000,   754.80000
    853.19,  2682.90000,   758.90000
    853.64,  2692.80000,   753.40000
    854.10,  2688.60000,   762.00000
    854.55,  2691.20000,   761.50000
    855.01,  2696.70000,   762.20000
    855.46,  2679.80000,   753.80000
    855.92,  2673.00000,   752.10000
    856.37,  2678.80000,   750.20000
    856.83,  2669.30000,   760.70000
    857.28,  2687.60000,   765.80000
    857.74,  2694.40000,   766.50000
    858.19,  2695.80000,   757.20000
    858.64,  2716.10000,   757.00000
    859.10,  2711.80000,   754.30000
    859.55,  2686.30000,   757.90000
    860.01,  2737.30000,   756.60000
    860.46,  2757.90000,   758.90000
    860.92,  2751.40000,   753.00000
    861.37,  2740.60000,   762.00000
    861.83,  2733.40000,   764.40000
    862.28,  2705.40000,   767.60000
    862.73,  2726.70000,   762.70000
    863.19,  2716.50000,   763.70000
    863.64,  2697.80000,   754.40000
    864.10,  2680.00000,   756.60000
    864.55,  2702.70000,   760.30000
    865.01,  2695.50000,   772.60000
    865.46,  2715.30000,   771.80000
    865.91,  2707.70000,   760.50000
    866.37,  2701.50000,   755.60000
    866.82,  2690.30000,   756.50000
    867.28,  2686.00000,   756.00000
    867.73,  2672.70000,   762.10000
    868.18,  2705.00000,   764.40000
    868.64,  2708.40000,   761.40000
    869.09,  2734.00000,   761.90000
    869.55,  2745.40000,   757.00000
    870.00,  2733.00000,   755.30000
    870.45,  2717.20000,   758.60000
    870.91,  2687.40000,   763.20000
    871.36,  2661.30000,   769.90000
    871.81,  2687.00000,   766.00000
    872.27,  2718.30000,   761.10000
    872.72,  2728.40000,   759.40000
    873.18,  2724.10000,   765.30000
    873.63,  2693.70000,   771.10000
    874.08,  2679.20000,   774.90000
    874.54,  2696.90000,   772.30000
    874.99,  2698.30000,   771.00000
    875.44,  2681.80000,   759.80000
    875.90,  2661.90000,   760.00000
    876.35,  2659.70000,   765.30000
    876.81,  2690.00000,   770.00000
    877.26,  2725.50000,   770.00000
    877.71,  2713.10000,   770.50000
    878.17,  2690.40000,   762.60000
    878.62,  2704.40000,   760.70000
    879.07,  2724.50000,   763.90000
    879.53,  2749.80000,   765.80000
    879.98,  2742.60000,   769.70000
    880.43,  2725.30000,   773.70000
    880.89,  2711.70000,   772.00000
    881.34,  2714.00000,   769.10000
    881.79,  2724.40000,   770.60000
    882.25,  2714.40000,   766.30000
    882.70,  2686.30000,   763.20000
    883.15,  2669.50000,   767.70000
    883.61,  2677.10000,   773.10000
    884.06,  2664.40000,   771.70000
    884.51,  2686.10000,   774.10000
    884.97,  2676.40000,   773.00000
    885.42,  2691.70000,   767.90000
    885.87,  2688.20000,   775.10000
    886.32,  2703.80000,   774.30000
    886.78,  2677.00000,   772.60000
    887.23,  2686.50000,   775.50000
    887.68,  2681.40000,   773.10000
    888.14,  2694.10000,   766.30000
    888.59,  2681.20000,   768.30000
    889.04,  2665.90000,   761.10000
    889.50,  2632.10000,   760.20000
    889.95,  2650.00000,   771.50000
    890.40,  2677.40000,   782.00000
    890.85,  2696.70000,   782.80000
    891.31,  2686.80000,   788.60000
    891.76,  2681.60000,   785.10000
    892.21,  2666.50000,   787.20000
    892.67,  2673.90000,   795.70000
    893.12,  2672.10000,   794.50000
    893.57,  2685.50000,   784.50000
    894.02,  2695.30000,   780.80000
    894.48,  2717.90000,   776.70000
    894.93,  2717.00000,   783.80000
    895.38,  2714.40000,   789.20000
    895.83,  2683.90000,   799.70000
    896.29,  2678.10000,   809.50000
    896.74,  2671.40000,   807.90000
    897.19,  2696.10000,   802.30000
    897.64,  2709.60000,   791.50000
    898.10,  2723.20000,   781.20000
    898.55,  2701.00000,   788.20000
    899.00,  2690.40000,   794.80000
    899.45,  2648.70000,   797.90000
    899.91,  2644.50000,   794.00000
    900.36,  2627.90000,   792.00000
    900.81,  2664.00000,   788.10000
    901.26,  2676.20000,   790.10000
    901.72,  2694.40000,   798.80000
    902.17,  2683.70000,   802.70000
    902.62,  2692.60000,   805.80000
    903.07,  2663.50000,   803.80000
    903.52,  2683.80000,   797.00000
    903.98,  2688.00000,   789.40000
    904.43,  2694.10000,   792.60000
    904.88,  2687.70000,   784.00000
    905.33,  2696.40000,   791.60000
    905.79,  2678.00000,   792.20000
    906.24,  2687.10000,   790.40000
    906.69,  2693.70000,   792.70000
    907.14,  2692.00000,   793.50000
    907.59,  2666.40000,   790.30000
    908.05,  2655.90000,   797.70000
    908.50,  2637.50000,   808.70000
    908.95,  2652.00000,   812.80000
    909.40,  2666.20000,   813.10000
    909.85,  2669.00000,   813.60000
    910.31,  2662.20000,   822.70000
    910.76,  2641.50000,   833.10000
    911.21,  2621.60000,   839.80000
    911.66,  2624.50000,   840.20000
    912.11,  2631.80000,   830.80000
    912.56,  2665.60000,   830.10000
    913.02,  2687.90000,   835.90000
    913.47,  2679.90000,   846.60000
    913.92,  2671.40000,   861.50000
    914.37,  2659.60000,   872.50000
    914.82,  2654.70000,   894.70000
    915.27,  2672.00000,   908.40000
    915.73,  2691.10000,   914.40000
    916.18,  2674.90000,   928.20000
    916.63,  2656.70000,   942.90000
    917.08,  2621.80000,   949.20000
    917.53,  2655.80000,   959.80000
    917.98,  2544.70000,   966.90000
    918.44,  2889.40000,   977.30000
    918.89,  3073.50000,   991.30000
    919.34,  3127.90000,  1007.10000
    919.79,  3037.40000,  1030.80000
    920.24,  2878.50000,  1053.80000
    920.69,  2558.80000,  1080.30000
    921.14,  2689.60000,  1117.30000
    921.59,  2685.70000,  1144.10000
    922.05,  2681.40000,  1170.40000
    922.50,  2672.70000,  1224.70000
    922.95,  2687.10000,  1295.30000
    923.40,  2703.50000,  1372.10000
    923.85,  2711.90000,  1483.30000
    924.30,  2722.00000,  1598.50000
    924.75,  2704.70000,  1743.50000
    925.20,  2674.30000,  1921.70000
    925.66,  2653.70000,  2122.80000
    926.11,  2650.90000,  2338.30000
    926.56,  2654.70000,  2593.00000
    927.01,  2683.20000,  2856.80000
    927.46,  2683.00000,  3144.90000
    927.91,  2653.80000,  3454.20000
    928.36,  2628.00000,  3788.80000
    928.81,  2635.70000,  4131.20000
    929.26,  2641.30000,  4498.00000
    929.71,  2675.50000,  4839.90000
    930.16,  2703.40000,  5144.30000
    930.62,  2677.90000,  5436.20000
    931.07,  2666.20000,  5659.50000
    931.52,  2667.80000,  5831.90000
    931.97,  2676.30000,  5996.40000
    932.42,  2686.30000,  6150.30000
    932.87,  2699.40000,  6319.80000
    933.32,  2670.50000,  6477.80000
    933.77,  2690.80000,  6562.50000
    934.22,  2687.70000,  6585.50000
    934.67,  2704.10000,  6602.30000
    935.12,  2692.70000,  6651.70000
    935.57,  2667.90000,  6747.10000
    936.02,  2630.40000,  6805.90000
    936.47,  2654.40000,  6802.10000
    936.93,  2638.00000,  6745.30000
    937.38,  2648.30000,  6746.50000
    937.83,  2663.90000,  6838.20000
    938.28,  2657.30000,  7037.40000
    938.73,  2649.40000,  7290.60000
    939.18,  2660.10000,  7537.20000
    939.63,  2660.80000,  7757.40000
    940.08,  2671.10000,  7922.80000
    940.53,  2691.50000,  8074.10000
    940.98,  2690.10000,  8244.80000
    941.43,  2671.00000,  8389.70000
    941.88,  2662.80000,  8489.10000
    942.33,  2672.40000,  8562.90000
    942.78,  2671.10000,  8587.70000
    943.23,  2685.40000,  8601.20000
    943.68,  2685.60000,  8627.00000
    944.13,  2692.50000,  8603.10000
    944.58,  2700.00000,  8575.80000
    945.03,  2688.50000,  8630.50000
    945.48,  2661.20000,  8705.70000
    945.93,  2654.60000,  8750.70000
    946.38,  2658.80000,  8792.80000
    946.83,  2685.00000,  8755.70000
    947.28,  2696.00000,  8754.30000
    947.73,  2692.20000,  8797.70000
    948.18,  2673.00000,  8814.00000
    948.63,  2660.00000,  8822.30000
    949.08,  2659.50000,  8845.50000
    949.53,  2648.90000,  8766.00000
    949.98,  2643.50000,  8694.20000
    950.43,  2656.00000,  8595.10000
    950.88,  2659.80000,  8463.70000
    951.33,  2666.80000,  8327.90000
    951.78,  2682.70000,  8244.30000
    952.23,  2687.00000,  8158.60000
    952.68,  2669.90000,  8137.10000
    953.13,  2675.30000,  8109.90000
    953.58,  2677.00000,  8063.70000
    954.03,  2665.90000,  7994.30000
    954.48,  2652.30000,  7956.40000
    954.93,  2649.80000,  7896.90000
    955.38,  2640.20000,  7791.60000
    955.83,  2653.00000,  7621.90000
    956.28,  2656.20000,  7435.00000
    956.73,  2665.30000,  7216.70000
    957.18,  2670.00000,  7015.50000
    957.62,  2661.40000,  6807.00000
    958.07,  2678.40000,  6576.60000
    958.52,  2666.40000,  6447.70000
    958.97,  2652.00000,  6355.40000
    959.42,  2651.70000,  6205.50000
    959.87,  2645.90000,  6052.80000
    960.32,  2647.80000,  5852.20000
    960.77,  2675.00000,  5652.50000
    961.22,  2712.20000,  5501.40000
    961.67,  2732.60000,  5331.90000
    962.12,  2709.70000,  5152.20000
    962.57,  2681.20000,  5002.20000
    963.02,  2682.90000,  4879.40000
    963.47,  2664.60000,  4810.40000
    963.92,  2683.10000,  4749.50000
    964.36,  2682.20000,  4687.60000
    964.81,  2662.00000,  4622.60000
    965.26,  2664.20000,  4535.20000
    965.71,  2679.00000,  4451.80000
    966.16,  2672.60000,  4375.40000
    966.61,  2658.60000,  4293.50000
    967.06,  2648.60000,  4176.20000
    967.51,  2659.30000,  4025.90000
    967.96,  2673.50000,  3881.60000
    968.41,  2689.30000,  3736.90000
    968.85,  2691.80000,  3616.50000
    969.30,  2674.70000,  3495.40000
    969.75,  2686.90000,  3350.40000
    970.20,  2682.70000,  3210.80000
    970.65,  2687.80000,  3087.40000
    971.10,  2679.80000,  2978.00000
    971.55,  2680.30000,  2874.60000
    972.00,  2662.30000,  2774.60000
    972.44,  2656.70000,  2691.60000
    972.89,  2676.40000,  2618.90000
    973.34,  2698.40000,  2547.40000
    973.79,  2699.40000,  2493.30000
    974.24,  2704.10000,  2443.60000
    974.69,  2676.60000,  2408.30000
    975.14,  2636.80000,  2407.30000
    975.59,  2637.50000,  2413.30000
    976.03,  2618.50000,  2434.90000
    976.48,  2614.60000,  2451.30000
    976.93,  2615.50000,  2457.40000
    977.38,  2624.60000,  2453.60000
    977.83,  2624.40000,  2447.00000
    978.28,  2641.40000,  2443.00000
    978.72,  2654.90000,  2427.10000
    979.17,  2670.60000,  2410.50000
    979.62,  2682.00000,  2380.80000
    980.07,  2684.90000,  2361.20000
    980.52,  2671.10000,  2370.40000
    980.97,  2646.90000,  2398.00000
    981.41,  2610.80000,  2406.90000
    981.86,  2586.00000,  2437.30000
    982.31,  2609.70000,  2411.90000
    982.76,  2631.40000,  2358.50000
    983.21,  2666.80000,  2282.50000
    983.66,  2672.00000,  2192.40000
    984.10,  2646.90000,  2093.60000
    984.55,  2627.70000,  2030.50000
    985.00,  2615.60000,  1958.40000
    985.45,  2593.70000,  1893.70000
    985.90,  2608.10000,  1824.80000
    986.34,  2625.40000,  1772.30000
    986.79,  2616.00000,  1726.20000
    987.24,  2622.70000,  1695.60000
    987.69,  2596.40000,  1658.10000
    988.14,  2589.50000,  1615.60000
    988.58,  2609.30000,  1564.90000
    989.03,  2631.40000,  1503.00000
    989.48,  2634.40000,  1453.90000
    989.93,  2633.70000,  1422.10000
    990.38,  2606.60000,  1399.10000
    990.82,  2613.90000,  1372.80000
    991.27,  2633.50000,  1351.70000
    991.72,  2660.90000,  1318.50000
    992.17,  2649.20000,  1298.40000
    992.61,  2656.00000,  1283.20000
    993.06,  2628.40000,  1279.00000
    993.51,  2648.50000,  1262.00000
    993.96,  2648.20000,  1246.00000
    994.41,  2639.40000,  1223.30000
    994.85,  2615.70000,  1202.30000
    995.30,  2628.10000,  1179.80000
    995.75,  2625.00000,  1155.10000
    996.20,  2668.70000,  1134.80000
    996.64,  2656.50000,  1118.60000
    997.09,  2626.10000,  1111.00000
    997.54,  2619.50000,  1094.80000
    997.99,  2603.80000,  1080.40000
    998.43,  2604.40000,  1061.90000
    998.88,  2606.70000,  1043.00000
    999.33,  2609.80000,  1042.50000
    999.77,  2634.40000,  1048.90000
   1000.22,  2658.50000,  1044.00000
   1000.67,  2665.90000,  1050.20000
   1001.12,  2671.20000,  1047.30000
   1001.56,  2639.90000,  1033.30000
   1002.01,  2621.20000,  1031.90000
   1002.46,  2635.70000,  1016.20000
   1002.91,  2616.70000,  1008.70000
   1003.35,  2631.20000,  1014.50000
   1003.80,  2627.50000,  1011.80000
   1004.25,  2631.30000,  1015.10000
   1004.69,  2629.80000,  1021.10000
   1005.14,  2614.60000,  1015.00000
   1005.59,  2608.50000,  1014.50000
   1006.04,  2634.70000,  1015.30000
   1006.48,  2646.40000,  1015.60000
   1006.93,  2677.30000,  1016.10000
   1007.38,  2668.30000,  1021.80000
   1007.82,  2626.40000,  1022.80000
   1008.27,  2606.70000,  1018.70000
   1008.72,  2592.90000,  1015.10000
   1009.16,  2591.40000,  1009.80000
   1009.61,  2607.10000,  1011.80000
   1010.06,  2610.30000,  1016.30000
   1010.50,  2644.10000,  1020.00000
   1010.95,  2672.80000,  1018.00000
   1011.40,  2673.80000,  1018.70000
   1011.85,  2645.80000,  1011.50000
   1012.29,  2626.20000,  1017.10000
   1012.74,  2598.70000,  1012.40000
   1013.19,  2603.10000,  1006.00000
   1013.63,  2650.00000,   996.10000
   1014.08,  2680.40000,   993.70000
   1014.53,  2675.60000,   997.30000
   1014.97,  2657.30000,   998.40000
   1015.42,  2630.10000,  1003.50000
   1015.86,  2594.40000,  1001.80000
   1016.31,  2611.80000,  1002.60000
   1016.76,  2638.40000,  1006.20000
   1017.20,  2625.40000,  1010.20000
   1017.65,  2604.30000,  1007.40000
   1018.10,  2603.00000,  1008.80000
   1018.54,  2588.70000,  1008.80000
   1018.99,  2607.80000,  1009.80000
   1019.44,  2619.40000,  1002.40000
   1019.88,  2612.10000,  1000.40000
   1020.33,  2610.30000,  1003.10000
   1020.78,  2618.80000,  1004.60000
   1021.22,  2632.00000,  1006.70000
   1021.67,  2635.20000,  1011.90000
   1022.11,  2625.40000,  1008.60000
   1022.56,  2620.60000,  1022.20000
   1023.01,  2610.80000,  1023.60000
   1023.45,  2597.10000,  1024.20000
   1023.90,  2601.30000,  1016.60000
   1024.34,  2582.10000,  1019.50000
   1024.79,  2581.50000,  1029.10000
   1025.24,  2606.10000,  1038.50000
   1025.68,  2604.20000,  1034.10000
   1026.13,  2610.70000,  1027.40000
   1026.58,  2618.10000,  1015.90000
   1027.02,  2630.80000,  1015.90000
   1027.47,  2633.60000,  1032.10000
   1027.91,  2640.30000,  1028.50000
   1028.36,  2612.20000,  1024.10000
   1028.80,  2595.80000,  1019.50000
   1029.25,  2580.10000,  1013.80000
   1029.70,  2584.40000,  1027.10000
   1030.14,  2579.50000,  1040.70000
   1030.59,  2578.40000,  1042.30000
   1031.03,  2586.60000,  1037.30000
   1031.48,  2591.00000,  1044.70000
   1031.93,  2621.90000,  1045.00000
   1032.37,  2649.90000,  1046.00000
   1032.82,  2651.10000,  1047.10000
   1033.26,  2660.20000,  1038.10000
   1033.71,  2644.00000,  1029.30000
   1034.15,  2619.10000,  1040.30000
   1034.60,  2610.40000,  1046.90000
   1035.05,  2620.70000,  1054.20000
   1035.49,  2608.10000,  1054.80000
   1035.94,  2616.50000,  1049.20000
   1036.38,  2587.60000,  1048.50000
   1036.83,  2566.90000,  1053.90000
   1037.27,  2555.10000,  1054.80000
   1037.72,  2557.20000,  1067.50000
   1038.16,  2661.50000,  1056.10000
   1038.61,  2730.30000,  1060.80000
   1039.05,  2737.80000,  1061.00000
   1039.50,  2724.80000,  1065.20000
   1039.95,  2672.50000,  1060.50000
   1040.39,  2603.30000,  1063.00000
   1040.84,  2618.00000,  1056.60000
   1041.28,  2610.00000,  1059.60000
   1041.73,  2601.00000,  1064.20000
   1042.17,  2604.90000,  1068.70000
   1042.62,  2605.70000,  1068.30000
   1043.06,  2616.50000,  1071.70000
   1043.51,  2593.70000,  1083.80000
   1043.95,  2601.60000,  1084.40000
   1044.40,  2600.40000,  1087.20000
   1044.84,  2590.50000,  1081.10000
   1045.29,  2587.00000,  1074.60000
   1045.73,  2601.60000,  1073.60000
   1046.18,  2584.50000,  1081.60000
   1046.62,  2579.90000,  1086.90000
   1047.07,  2569.10000,  1090.10000
   1047.51,  2544.50000,  1098.80000
   1047.96,  2571.40000,  1107.30000
   1048.40,  2618.20000,  1115.50000
   1048.85,  2639.40000,  1115.30000
   1049.29,  2629.80000,  1117.20000
   1049.74,  2597.90000,  1100.50000
   1050.18,  2559.90000,  1102.50000
   1050.63,  2562.50000,  1099.40000
   1051.07,  2576.10000,  1103.10000
   1051.52,  2589.90000,  1119.00000
   1051.96,  2573.80000,  1133.80000
   1052.41,  2561.30000,  1132.10000
   1052.85,  2560.00000,  1138.70000
   1053.30,  2549.80000,  1142.40000
   1053.74,  2553.80000,  1137.40000
   1054.18,  2561.00000,  1144.20000
   1054.63,  2541.70000,  1146.60000
   1055.07,  2533.50000,  1147.90000
   1055.52,  2532.80000,  1152.30000
   1055.96,  2525.10000,  1160.90000
   1056.41,  2521.30000,  1159.40000
   1056.85,  2517.70000,  1163.80000
   1057.30,  2522.20000,  1157.80000
   1057.74,  2521.50000,  1161.00000
   1058.18,  2528.60000,  1160.60000
   1058.63,  2502.40000,  1162.40000
   1059.07,  2500.10000,  1164.60000
   1059.52,  2509.40000,  1164.90000
   1059.96,  2517.20000,  1158.30000
   1060.41,  2517.20000,  1162.90000
   1060.85,  2526.00000,  1171.80000
   1061.30,  2505.80000,  1183.60000
   1061.74,  2496.90000,  1199.10000
   1062.18,  2496.90000,  1196.40000
   1062.63,  2474.90000,  1188.50000
   1063.07,  2471.70000,  1192.20000
   1063.52,  2469.10000,  1201.90000
   1063.96,  2485.70000,  1205.60000
   1064.40,  2488.10000,  1213.70000
   1064.85,  2484.90000,  1215.50000
   1065.29,  2466.60000,  1207.60000
   1065.74,  2456.00000,  1210.90000
   1066.18,  2425.90000,  1212.00000
