2D Measure spectrum data V5.74

<< MEASURE 1 >>
Data count = 2048
Exposure time = 30000 msec
Average = 10
Inspected time = 2020/10/25 15:39

Wave-dcm-1,Dark spec.  ,Spectrum
    108.17,  2183.40000,  1635.20000
    108.66,  2193.40000,  1618.50000
    109.15,  2205.30000,  1600.90000
    109.65,  2235.80000,  1567.90000
    110.14,  2245.90000,  1549.00000
    110.63,  2253.30000,  1522.80000
    111.13,  2263.90000,  1510.30000
    111.62,  2257.20000,  1488.60000
    112.11,  2269.90000,  1479.80000
    112.60,  2296.20000,  1467.10000
    113.10,  2285.20000,  1458.80000
    113.59,  2308.00000,  1449.70000
    114.08,  2320.60000,  1462.60000
    114.58,  2308.80000,  1462.80000
    115.07,  2348.30000,  1469.40000
    115.56,  2360.00000,  1460.70000
    116.06,  2344.30000,  1460.10000
    116.55,  2350.70000,  1451.80000
    117.04,  2340.00000,  1455.30000
    117.53,  2316.20000,  1460.90000
    118.03,  2354.80000,  1467.60000
    118.52,  2365.30000,  1473.10000
    119.01,  2360.30000,  1495.80000
    119.51,  2451.20000,  1512.30000
    120.00,  2541.20000,  1542.80000
    120.49,  2569.70000,  1574.50000
    120.98,  2570.70000,  1606.00000
    121.48,  2486.10000,  1644.00000
    121.97,  2379.40000,  1674.90000
    122.46,  2364.30000,  1707.10000
    122.95,  2390.50000,  1749.70000
    123.45,  2424.60000,  1784.60000
    123.94,  2433.30000,  1830.20000
    124.43,  2450.30000,  1880.20000
    124.92,  2480.30000,  1912.50000
    125.42,  2478.90000,  1940.60000
    125.91,  2502.40000,  1963.60000
    126.40,  2500.20000,  1988.80000
    126.89,  2468.70000,  2031.10000
    127.39,  2458.20000,  2076.20000
    127.88,  2448.20000,  2126.00000
    128.37,  2443.40000,  2167.10000
    128.86,  2463.60000,  2205.80000
    129.35,  2463.60000,  2235.40000
    129.85,  2468.00000,  2262.00000
    130.34,  2466.80000,  2281.70000
    130.83,  2472.00000,  2322.60000
    131.32,  2480.80000,  2350.00000
    131.81,  2483.40000,  2371.10000
    132.31,  2481.80000,  2390.00000
    132.80,  2480.70000,  2398.80000
    133.29,  2463.20000,  2410.00000
    133.78,  2471.10000,  2432.80000
    134.27,  2487.50000,  2438.30000
    134.77,  2502.60000,  2439.90000
    135.26,  2526.90000,  2459.60000
    135.75,  2524.80000,  2488.10000
    136.24,  2536.00000,  2526.30000
    136.73,  2519.60000,  2555.20000
    137.23,  2531.30000,  2567.00000
    137.72,  2522.40000,  2570.70000
    138.21,  2518.60000,  2572.20000
    138.70,  2500.90000,  2579.40000
    139.19,  2538.00000,  2583.50000
    139.68,  2530.80000,  2585.40000
    140.18,  2538.80000,  2591.50000
    140.67,  2549.40000,  2615.00000
    141.16,  2550.40000,  2626.60000
    141.65,  2537.40000,  2642.00000
    142.14,  2536.90000,  2648.10000
    142.63,  2555.80000,  2656.10000
    143.13,  2559.60000,  2677.30000
    143.62,  2600.50000,  2700.30000
    144.11,  2594.70000,  2723.60000
    144.60,  2559.70000,  2740.20000
    145.09,  2541.40000,  2742.40000
    145.58,  2596.90000,  2750.90000
    146.07,  2619.90000,  2753.90000
    146.56,  2632.40000,  2752.40000
    147.06,  2614.00000,  2781.20000
    147.55,  2583.30000,  2807.40000
    148.04,  2538.20000,  2836.60000
    148.53,  2572.40000,  2865.40000
    149.02,  2556.10000,  2866.40000
    149.51,  2626.20000,  2873.90000
    150.00,  2676.60000,  2899.10000
    150.49,  2697.40000,  2927.90000
    150.99,  2692.00000,  2960.30000
    151.48,  2669.70000,  2971.90000
    151.97,  2591.80000,  2965.80000
    152.46,  2597.50000,  2974.00000
    152.95,  2576.70000,  2988.50000
    153.44,  2577.40000,  2995.50000
    153.93,  2595.00000,  3005.00000
    154.42,  2613.80000,  2989.40000
    154.91,  2596.70000,  2976.00000
    155.40,  2582.70000,  2967.30000
    155.89,  2568.80000,  2947.30000
    156.39,  2590.50000,  2920.40000
    156.88,  2569.70000,  2908.70000
    157.37,  2583.60000,  2905.10000
    157.86,  2586.20000,  2928.70000
    158.35,  2591.50000,  2955.00000
    158.84,  2600.50000,  2974.50000
    159.33,  2648.10000,  2975.30000
    159.82,  2655.10000,  2974.10000
    160.31,  2668.20000,  2977.90000
    160.80,  2702.30000,  2969.80000
    161.29,  2654.70000,  2958.50000
    161.78,  2621.20000,  2947.60000
    162.27,  2598.00000,  2920.10000
    162.76,  2590.60000,  2910.40000
    163.25,  2603.10000,  2910.20000
    163.74,  2640.40000,  2894.80000
    164.23,  2642.10000,  2880.50000
    164.72,  2668.90000,  2887.10000
    165.21,  2641.60000,  2885.60000
    165.70,  2619.50000,  2886.40000
    166.20,  2657.30000,  2889.90000
    166.69,  2679.40000,  2885.80000
    167.18,  2697.60000,  2864.80000
    167.67,  2691.70000,  2864.70000
    168.16,  2659.40000,  2845.60000
    168.65,  2603.90000,  2825.90000
    169.14,  2631.30000,  2810.00000
    169.63,  2628.80000,  2799.30000
    170.12,  2625.80000,  2773.90000
    170.61,  2615.50000,  2743.80000
    171.10,  2674.90000,  2717.20000
    171.59,  2668.50000,  2702.30000
    172.08,  2680.40000,  2688.80000
    172.57,  2674.20000,  2669.50000
    173.06,  2665.10000,  2659.00000
    173.55,  2650.80000,  2640.60000
    174.04,  2641.10000,  2640.40000
    174.53,  2634.50000,  2641.60000
    175.02,  2630.20000,  2645.50000
    175.50,  2656.90000,  2648.00000
    175.99,  2690.50000,  2637.40000
    176.48,  2722.70000,  2625.20000
    176.97,  2695.80000,  2626.50000
    177.46,  2696.80000,  2612.30000
    177.95,  2663.70000,  2597.90000
    178.44,  2649.40000,  2588.90000
    178.93,  2643.00000,  2569.40000
    179.42,  2662.00000,  2574.70000
    179.91,  2668.80000,  2599.00000
    180.40,  2680.50000,  2616.90000
    180.89,  2687.50000,  2629.50000
    181.38,  2679.10000,  2635.00000
    181.87,  2675.50000,  2658.60000
    182.36,  2665.00000,  2689.40000
    182.85,  2629.70000,  2707.50000
    183.34,  2648.70000,  2706.70000
    183.83,  2664.50000,  2674.10000
    184.32,  2663.10000,  2643.70000
    184.81,  2702.60000,  2623.80000
    185.29,  2697.20000,  2616.80000
    185.78,  2665.20000,  2614.20000
    186.27,  2677.60000,  2611.30000
    186.76,  2673.30000,  2603.20000
    187.25,  2651.30000,  2609.00000
    187.74,  2717.30000,  2631.10000
    188.23,  2735.50000,  2648.40000
    188.72,  2760.30000,  2661.90000
    189.21,  2748.10000,  2682.90000
    189.70,  2712.40000,  2703.00000
    190.19,  2676.10000,  2744.60000
    190.67,  2666.30000,  2775.90000
    191.16,  2662.50000,  2791.60000
    191.65,  2675.80000,  2797.60000
    192.14,  2660.90000,  2808.70000
    192.63,  2678.90000,  2822.70000
    193.12,  2691.40000,  2836.50000
    193.61,  2684.10000,  2827.60000
    194.10,  2702.00000,  2809.50000
    194.59,  2699.10000,  2782.60000
    195.07,  2684.60000,  2773.10000
    195.56,  2691.80000,  2763.20000
    196.05,  2670.10000,  2733.20000
    196.54,  2662.10000,  2708.10000
    197.03,  2682.00000,  2676.20000
    197.52,  2727.10000,  2638.20000
    198.01,  2732.80000,  2623.60000
    198.49,  2731.80000,  2606.90000
    198.98,  2723.90000,  2579.20000
    199.47,  2685.10000,  2551.10000
    199.96,  2666.20000,  2542.80000
    200.45,  2683.30000,  2516.50000
    200.94,  2669.90000,  2496.20000
    201.43,  2676.90000,  2480.60000
    201.91,  2673.60000,  2460.10000
    202.40,  2667.80000,  2428.00000
    202.89,  2666.10000,  2413.60000
    203.38,  2682.50000,  2403.90000
    203.87,  2681.10000,  2400.30000
    204.36,  2668.20000,  2401.00000
    204.84,  2658.30000,  2411.00000
    205.33,  2677.90000,  2401.10000
    205.82,  2692.70000,  2402.40000
    206.31,  2689.10000,  2404.00000
    206.80,  2688.30000,  2401.50000
    207.28,  2695.90000,  2391.30000
    207.77,  2704.00000,  2387.00000
    208.26,  2717.90000,  2375.40000
    208.75,  2717.90000,  2366.40000
    209.24,  2697.80000,  2363.00000
    209.72,  2707.10000,  2365.10000
    210.21,  2722.10000,  2364.40000
    210.70,  2709.00000,  2365.40000
    211.19,  2727.20000,  2363.80000
    211.68,  2732.20000,  2357.10000
    212.16,  2733.20000,  2371.30000
    212.65,  2737.60000,  2375.50000
    213.14,  2725.20000,  2370.80000
    213.63,  2719.40000,  2371.00000
    214.12,  2704.00000,  2374.80000
    214.60,  2710.50000,  2388.10000
    215.09,  2721.80000,  2400.80000
    215.58,  2725.30000,  2399.40000
    216.07,  2717.00000,  2395.60000
    216.55,  2722.20000,  2398.00000
    217.04,  2660.10000,  2403.90000
    217.53,  2657.00000,  2422.70000
    218.02,  2658.90000,  2438.50000
    218.50,  2673.00000,  2453.00000
    218.99,  2685.80000,  2474.70000
    219.48,  2708.20000,  2482.10000
    219.97,  2671.70000,  2484.30000
    220.45,  2674.50000,  2484.20000
    220.94,  2673.90000,  2492.00000
    221.43,  2684.60000,  2505.90000
    221.92,  2707.90000,  2520.50000
    222.40,  2713.30000,  2519.40000
    222.89,  2707.40000,  2509.90000
    223.38,  2726.70000,  2499.60000
    223.86,  2748.40000,  2490.90000
    224.35,  2764.00000,  2484.90000
    224.84,  2765.60000,  2474.70000
    225.33,  2750.20000,  2460.90000
    225.81,  2717.70000,  2438.70000
    226.30,  2699.20000,  2429.50000
    226.79,  2693.50000,  2409.60000
    227.27,  2681.80000,  2398.30000
    227.76,  2686.10000,  2376.10000
    228.25,  2724.20000,  2344.90000
    228.74,  2744.10000,  2313.00000
    229.22,  2767.40000,  2290.90000
    229.71,  2758.50000,  2266.30000
    230.20,  2735.20000,  2248.80000
    230.68,  2723.30000,  2222.20000
    231.17,  2710.40000,  2196.20000
    231.66,  2686.40000,  2173.60000
    232.14,  2681.40000,  2156.50000
    232.63,  2672.80000,  2128.10000
    233.12,  2696.30000,  2104.80000
    233.60,  2720.90000,  2081.20000
    234.09,  2701.70000,  2066.10000
    234.58,  2693.10000,  2043.20000
    235.06,  2691.20000,  2034.80000
    235.55,  2686.20000,  2010.90000
    236.04,  2680.20000,  1993.30000
    236.52,  2695.20000,  1970.10000
    237.01,  2678.20000,  1957.20000
    237.50,  2709.50000,  1945.40000
    237.98,  2698.60000,  1956.40000
    238.47,  2750.90000,  1941.00000
    238.96,  2758.80000,  1927.50000
    239.44,  2753.30000,  1901.50000
    239.93,  2749.30000,  1896.10000
    240.41,  2709.70000,  1898.70000
    240.90,  2644.70000,  1907.10000
    241.39,  2674.20000,  1884.50000
    241.87,  2716.00000,  1871.90000
    242.36,  2732.40000,  1850.50000
    242.85,  2772.60000,  1839.20000
    243.33,  2765.40000,  1832.70000
    243.82,  2734.60000,  1823.70000
    244.30,  2713.50000,  1815.70000
    244.79,  2716.20000,  1833.20000
    245.28,  2694.30000,  1835.10000
    245.76,  2696.60000,  1832.70000
    246.25,  2685.60000,  1821.40000
    246.74,  2695.80000,  1812.90000
    247.22,  2722.40000,  1806.30000
    247.71,  2720.20000,  1804.80000
    248.19,  2709.70000,  1793.20000
    248.68,  2715.30000,  1791.30000
    249.16,  2682.80000,  1793.90000
    249.65,  2705.90000,  1802.80000
    250.14,  2719.00000,  1803.80000
    250.62,  2700.00000,  1795.00000
    251.11,  2679.80000,  1781.40000
    251.59,  2667.80000,  1769.00000
    252.08,  2660.60000,  1759.20000
    252.57,  2679.40000,  1744.50000
    253.05,  2682.10000,  1741.80000
    253.54,  2715.40000,  1751.80000
    254.02,  2740.50000,  1752.50000
    254.51,  2747.00000,  1755.20000
    254.99,  2750.10000,  1745.00000
    255.48,  2721.40000,  1741.00000
    255.96,  2695.40000,  1733.70000
    256.45,  2718.20000,  1741.90000
    256.94,  2722.50000,  1752.70000
    257.42,  2714.90000,  1754.80000
    257.91,  2715.00000,  1755.60000
    258.39,  2709.00000,  1755.50000
    258.88,  2698.50000,  1745.20000
    259.36,  2721.90000,  1742.90000
    259.85,  2720.80000,  1749.30000
    260.33,  2736.10000,  1739.00000
    260.82,  2753.00000,  1743.30000
    261.30,  2759.40000,  1746.40000
    261.79,  2734.70000,  1744.60000
    262.27,  2709.30000,  1751.90000
    262.76,  2687.20000,  1755.00000
    263.24,  2690.90000,  1758.10000
    263.73,  2716.70000,  1760.00000
    264.22,  2716.30000,  1763.00000
    264.70,  2783.90000,  1757.00000
    265.19,  2806.60000,  1751.20000
    265.67,  2806.40000,  1743.70000
    266.16,  2779.30000,  1753.40000
    266.64,  2754.50000,  1749.60000
    267.13,  2688.10000,  1762.00000
    267.61,  2691.90000,  1767.20000
    268.10,  2709.80000,  1767.00000
    268.58,  2713.50000,  1766.80000
    269.06,  2711.80000,  1772.20000
    269.55,  2731.00000,  1775.40000
    270.03,  2735.20000,  1797.40000
    270.52,  2727.50000,  1815.70000
    271.00,  2738.70000,  1818.40000
    271.49,  2738.50000,  1807.20000
    271.97,  2737.30000,  1797.60000
    272.46,  2746.50000,  1801.10000
    272.94,  2745.50000,  1819.60000
    273.43,  2731.70000,  1836.50000
    273.91,  2698.20000,  1839.00000
    274.40,  2688.80000,  1832.80000
    274.88,  2683.30000,  1823.80000
    275.37,  2690.70000,  1829.70000
    275.85,  2697.80000,  1837.60000
    276.33,  2702.40000,  1843.70000
    276.82,  2708.40000,  1852.60000
    277.30,  2720.50000,  1851.90000
    277.79,  2720.00000,  1845.20000
    278.27,  2730.70000,  1847.00000
    278.76,  2749.30000,  1851.00000
    279.24,  2751.60000,  1855.90000
    279.73,  2752.20000,  1854.50000
    280.21,  2733.20000,  1857.90000
    280.69,  2709.10000,  1861.40000
    281.18,  2713.50000,  1853.30000
    281.66,  2731.10000,  1852.40000
    282.15,  2764.30000,  1848.00000
    282.63,  2766.30000,  1834.90000
    283.11,  2753.20000,  1841.30000
    283.60,  2749.30000,  1846.70000
    284.08,  2760.40000,  1845.60000
    284.57,  2728.90000,  1847.50000
    285.05,  2723.80000,  1846.50000
    285.53,  2698.90000,  1842.10000
    286.02,  2672.70000,  1835.30000
    286.50,  2698.50000,  1811.30000
    286.99,  2727.20000,  1797.50000
    287.47,  2721.00000,  1778.90000
    287.95,  2715.10000,  1778.20000
    288.44,  2706.30000,  1779.20000
    288.92,  2694.80000,  1786.10000
    289.41,  2707.20000,  1779.00000
    289.89,  2731.10000,  1768.40000
    290.37,  2743.70000,  1738.40000
    290.86,  2760.80000,  1730.10000
    291.34,  2730.20000,  1721.80000
    291.82,  2710.70000,  1729.60000
    292.31,  2681.50000,  1732.50000
    292.79,  2692.60000,  1719.70000
    293.28,  2696.80000,  1701.70000
    293.76,  2706.80000,  1695.10000
    294.24,  2716.40000,  1684.20000
    294.73,  2744.00000,  1671.80000
    295.21,  2748.40000,  1659.00000
    295.69,  2753.10000,  1648.80000
    296.18,  2724.50000,  1637.20000
    296.66,  2685.60000,  1630.70000
    297.14,  2690.10000,  1620.20000
    297.63,  2701.70000,  1607.70000
    298.11,  2713.60000,  1605.90000
    298.59,  2740.50000,  1602.80000
    299.08,  2748.80000,  1587.80000
    299.56,  2746.70000,  1583.90000
    300.04,  2769.20000,  1578.40000
    300.53,  2769.70000,  1565.60000
    301.01,  2769.00000,  1552.60000
    301.49,  2762.50000,  1535.00000
    301.98,  2737.90000,  1514.50000
    302.46,  2711.30000,  1504.20000
    302.94,  2710.50000,  1495.20000
    303.42,  2706.20000,  1490.00000
    303.91,  2696.90000,  1483.70000
    304.39,  2679.20000,  1476.60000
    304.87,  2686.20000,  1465.20000
    305.36,  2708.80000,  1460.30000
    305.84,  2739.20000,  1456.10000
    306.32,  2775.20000,  1457.50000
    306.81,  2758.90000,  1461.90000
    307.29,  2729.20000,  1451.40000
    307.77,  2720.40000,  1432.20000
    308.25,  2719.50000,  1428.60000
    308.74,  2730.60000,  1424.80000
    309.22,  2731.60000,  1413.20000
    309.70,  2712.80000,  1411.10000
    310.18,  2703.60000,  1394.10000
    310.67,  2718.50000,  1372.50000
    311.15,  2734.80000,  1362.80000
    311.63,  2753.70000,  1357.20000
    312.12,  2755.30000,  1359.00000
    312.60,  2728.80000,  1365.40000
    313.08,  2704.80000,  1366.60000
    313.56,  2693.70000,  1364.70000
    314.05,  2691.70000,  1347.10000
    314.53,  2708.40000,  1338.90000
    315.01,  2759.40000,  1335.30000
    315.49,  2761.70000,  1327.90000
    315.98,  2763.60000,  1320.00000
    316.46,  2734.40000,  1322.80000
    316.94,  2694.40000,  1313.10000
    317.42,  2683.80000,  1304.60000
    317.90,  2696.60000,  1299.10000
    318.39,  2676.70000,  1301.40000
    318.87,  2723.30000,  1308.50000
    319.35,  2740.40000,  1313.90000
    319.83,  2747.10000,  1311.80000
    320.32,  2764.50000,  1298.40000
    320.80,  2777.20000,  1290.30000
    321.28,  2735.60000,  1284.80000
    321.76,  2765.10000,  1296.60000
    322.24,  2770.10000,  1287.90000
    322.73,  2780.10000,  1293.80000
    323.21,  2778.20000,  1297.20000
    323.69,  2778.40000,  1304.70000
    324.17,  2725.70000,  1299.40000
    324.65,  2689.70000,  1302.00000
    325.14,  2701.90000,  1290.10000
    325.62,  2717.30000,  1289.00000
    326.10,  2772.10000,  1286.60000
    326.58,  2793.50000,  1291.10000
    327.06,  2750.80000,  1286.60000
    327.55,  2753.30000,  1286.00000
    328.03,  2777.40000,  1284.30000
    328.51,  2780.20000,  1284.70000
    328.99,  2800.70000,  1288.00000
    329.47,  2792.10000,  1289.90000
    329.95,  2719.80000,  1290.70000
    330.44,  2718.00000,  1290.70000
    330.92,  2691.20000,  1283.60000
    331.40,  2675.30000,  1272.40000
    331.88,  2670.70000,  1272.60000
    332.36,  2685.30000,  1270.10000
    332.84,  2716.30000,  1265.80000
    333.33,  2755.00000,  1264.90000
    333.81,  2760.10000,  1262.30000
    334.29,  2771.00000,  1252.00000
    334.77,  2768.20000,  1246.70000
    335.25,  2752.30000,  1246.50000
    335.73,  2768.80000,  1235.70000
    336.21,  2755.10000,  1235.80000
    336.69,  2738.40000,  1228.90000
    337.18,  2727.70000,  1231.50000
    337.66,  2703.50000,  1233.60000
    338.14,  2685.50000,  1236.00000
    338.62,  2685.60000,  1226.60000
    339.10,  2703.80000,  1233.90000
    339.58,  2751.10000,  1213.70000
    340.06,  2768.30000,  1206.40000
    340.54,  2775.60000,  1210.30000
    341.03,  2762.70000,  1204.40000
    341.51,  2733.40000,  1211.20000
    341.99,  2728.30000,  1220.60000
    342.47,  2730.10000,  1218.10000
    342.95,  2723.70000,  1209.30000
    343.43,  2723.90000,  1214.40000
    343.91,  2726.70000,  1208.00000
    344.39,  2709.40000,  1206.40000
    344.87,  2697.50000,  1198.00000
    345.35,  2705.40000,  1199.20000
    345.84,  2713.20000,  1201.80000
    346.32,  2758.20000,  1208.20000
    346.80,  2778.90000,  1211.20000
    347.28,  2773.30000,  1208.90000
    347.76,  2749.20000,  1202.70000
    348.24,  2745.50000,  1200.50000
    348.72,  2766.80000,  1197.00000
    349.20,  2789.50000,  1191.70000
    349.68,  2771.00000,  1199.00000
    350.16,  2735.00000,  1204.50000
    350.64,  2691.80000,  1205.50000
    351.12,  2672.30000,  1212.10000
    351.60,  2730.10000,  1204.30000
    352.08,  2772.50000,  1202.60000
    352.56,  2798.30000,  1197.00000
    353.04,  2798.40000,  1194.60000
    353.53,  2780.50000,  1190.00000
    354.01,  2758.60000,  1177.20000
    354.49,  2774.70000,  1172.30000
    354.97,  2770.60000,  1183.40000
    355.45,  2761.00000,  1190.00000
    355.93,  2733.50000,  1198.50000
    356.41,  2739.40000,  1199.00000
    356.89,  2721.00000,  1189.50000
    357.37,  2737.50000,  1189.10000
    357.85,  2721.30000,  1187.80000
    358.33,  2717.10000,  1187.30000
    358.81,  2699.60000,  1184.40000
    359.29,  2708.40000,  1182.70000
    359.77,  2720.70000,  1183.60000
    360.25,  2746.10000,  1189.60000
    360.73,  2740.80000,  1188.80000
    361.21,  2735.10000,  1180.80000
    361.69,  2738.90000,  1184.80000
    362.17,  2741.60000,  1178.10000
    362.65,  2758.00000,  1170.10000
    363.13,  2767.50000,  1173.00000
    363.61,  2772.60000,  1182.20000
    364.09,  2742.40000,  1179.10000
    364.57,  2727.80000,  1194.50000
    365.05,  2725.40000,  1192.40000
    365.53,  2709.70000,  1187.80000
    366.01,  2728.10000,  1187.90000
    366.49,  2769.70000,  1187.30000
    366.97,  2737.10000,  1183.30000
    367.45,  2744.00000,  1197.90000
    367.93,  2775.10000,  1199.40000
    368.41,  2755.70000,  1205.80000
    368.89,  2756.10000,  1203.30000
    369.37,  2767.30000,  1188.80000
    369.85,  2716.80000,  1179.30000
    370.33,  2732.40000,  1183.90000
    370.80,  2761.00000,  1182.80000
    371.28,  2760.40000,  1188.90000
    371.76,  2741.00000,  1196.70000
    372.24,  2728.50000,  1187.20000
    372.72,  2718.50000,  1193.00000
    373.20,  2731.60000,  1193.20000
    373.68,  2754.20000,  1196.90000
    374.16,  2770.80000,  1199.60000
    374.64,  2748.20000,  1207.70000
    375.12,  2723.80000,  1203.30000
    375.60,  2750.80000,  1219.20000
    376.08,  2732.70000,  1214.50000
    376.56,  2727.60000,  1211.40000
    377.04,  2724.50000,  1204.10000
    377.52,  2732.00000,  1201.90000
    377.99,  2727.50000,  1200.00000
    378.47,  2757.00000,  1213.80000
    378.95,  2739.60000,  1212.40000
    379.43,  2753.00000,  1212.10000
    379.91,  2757.00000,  1211.10000
    380.39,  2805.10000,  1214.40000
    380.87,  2831.70000,  1211.90000
    381.35,  2818.10000,  1220.80000
    381.83,  2788.70000,  1212.10000
    382.31,  2746.50000,  1219.20000
    382.79,  2703.60000,  1214.30000
    383.26,  2717.10000,  1208.70000
    383.74,  2722.20000,  1203.60000
    384.22,  2712.00000,  1213.00000
    384.70,  2715.60000,  1222.50000
    385.18,  2689.20000,  1233.80000
    385.66,  2696.60000,  1232.70000
    386.14,  2710.40000,  1232.10000
    386.62,  2727.40000,  1229.60000
    387.09,  2751.70000,  1228.50000
    387.57,  2767.20000,  1233.20000
    388.05,  2762.20000,  1224.90000
    388.53,  2761.00000,  1210.60000
    389.01,  2761.10000,  1211.30000
    389.49,  2775.70000,  1214.60000
    389.97,  2773.70000,  1221.30000
    390.44,  2766.50000,  1222.20000
    390.92,  2747.20000,  1224.00000
    391.40,  2728.50000,  1220.80000
    391.88,  2723.60000,  1228.20000
    392.36,  2734.50000,  1223.70000
    392.84,  2732.20000,  1218.70000
    393.32,  2743.80000,  1207.30000
    393.79,  2737.40000,  1210.00000
    394.27,  2786.10000,  1220.60000
    394.75,  2788.40000,  1224.40000
    395.23,  2784.70000,  1227.30000
    395.71,  2768.80000,  1216.30000
    396.18,  2771.00000,  1202.90000
    396.66,  2778.60000,  1200.80000
    397.14,  2811.10000,  1202.20000
    397.62,  2773.80000,  1203.20000
    398.10,  2755.40000,  1220.50000
    398.58,  2738.70000,  1220.50000
    399.05,  2747.20000,  1220.10000
    399.53,  2760.10000,  1218.80000
    400.01,  2757.90000,  1214.10000
    400.49,  2740.80000,  1205.30000
    400.97,  2726.60000,  1205.20000
    401.44,  2692.00000,  1197.90000
    401.92,  2718.30000,  1197.40000
    402.40,  2723.50000,  1202.00000
    402.88,  2749.30000,  1209.10000
    403.36,  2774.00000,  1197.80000
    403.83,  2787.40000,  1188.00000
    404.31,  2739.90000,  1183.50000
    404.79,  2749.20000,  1179.50000
    405.27,  2722.30000,  1188.60000
    405.74,  2707.90000,  1195.70000
    406.22,  2736.50000,  1185.90000
    406.70,  2760.00000,  1174.80000
    407.18,  2742.30000,  1176.00000
    407.65,  2740.20000,  1162.60000
    408.13,  2712.30000,  1160.20000
    408.61,  2717.90000,  1161.70000
    409.09,  2735.60000,  1152.40000
    409.56,  2736.50000,  1152.50000
    410.04,  2742.50000,  1164.20000
    410.52,  2739.50000,  1154.20000
    411.00,  2714.90000,  1152.90000
    411.47,  2717.90000,  1147.20000
    411.95,  2707.60000,  1132.20000
    412.43,  2707.80000,  1130.80000
    412.91,  2712.60000,  1140.30000
    413.38,  2729.90000,  1134.50000
    413.86,  2742.10000,  1133.80000
    414.34,  2751.30000,  1120.60000
    414.82,  2755.50000,  1116.20000
    415.29,  2749.40000,  1118.30000
    415.77,  2753.10000,  1132.30000
    416.25,  2744.70000,  1135.50000
    416.72,  2740.40000,  1136.10000
    417.20,  2730.90000,  1123.40000
    417.68,  2701.20000,  1109.50000
    418.16,  2699.10000,  1100.90000
    418.63,  2727.90000,  1107.00000
    419.11,  2726.70000,  1114.70000
    419.59,  2733.90000,  1120.00000
    420.06,  2704.60000,  1116.90000
    420.54,  2670.90000,  1109.20000
    421.02,  2694.40000,  1104.80000
    421.50,  2722.50000,  1102.90000
    421.97,  2732.30000,  1095.40000
    422.45,  2728.30000,  1088.60000
    422.93,  2715.90000,  1085.00000
    423.40,  2699.50000,  1083.90000
    423.88,  2701.00000,  1094.80000
    424.36,  2706.10000,  1097.20000
    424.83,  2719.50000,  1086.50000
    425.31,  2743.30000,  1074.70000
    425.79,  2792.50000,  1079.40000
    426.26,  2828.00000,  1084.70000
    426.74,  2804.80000,  1099.80000
    427.22,  2777.40000,  1112.20000
    427.69,  2757.40000,  1102.80000
    428.17,  2738.10000,  1082.80000
    428.65,  2722.40000,  1082.00000
    429.12,  2757.90000,  1077.00000
    429.60,  2741.10000,  1078.60000
    430.08,  2748.90000,  1079.30000
    430.55,  2761.10000,  1067.10000
    431.03,  2765.00000,  1059.40000
    431.50,  2760.00000,  1067.90000
    431.98,  2764.00000,  1064.70000
    432.46,  2761.70000,  1070.50000
    432.93,  2746.10000,  1063.30000
    433.41,  2721.10000,  1066.10000
    433.89,  2713.80000,  1067.90000
    434.36,  2714.20000,  1071.10000
    434.84,  2714.40000,  1062.30000
    435.31,  2738.50000,  1062.10000
    435.79,  2740.60000,  1053.90000
    436.27,  2725.30000,  1063.00000
    436.74,  2715.40000,  1068.90000
    437.22,  2723.10000,  1067.00000
    437.70,  2727.70000,  1059.70000
    438.17,  2728.50000,  1050.80000
    438.65,  2729.80000,  1039.30000
    439.12,  2735.50000,  1034.00000
    439.60,  2723.70000,  1045.60000
    440.08,  2734.40000,  1045.40000
    440.55,  2717.20000,  1053.10000
    441.03,  2733.10000,  1049.30000
    441.50,  2735.20000,  1047.00000
    441.98,  2750.90000,  1044.40000
    442.45,  2741.00000,  1044.10000
    442.93,  2742.30000,  1035.80000
    443.41,  2726.80000,  1040.10000
    443.88,  2737.00000,  1031.90000
    444.36,  2724.50000,  1038.00000
    444.83,  2719.30000,  1049.20000
    445.31,  2722.90000,  1043.70000
    445.78,  2706.10000,  1051.00000
    446.26,  2710.90000,  1051.30000
    446.74,  2709.40000,  1051.70000
    447.21,  2728.50000,  1056.60000
    447.69,  2746.50000,  1051.00000
    448.16,  2762.50000,  1044.00000
    448.64,  2739.30000,  1042.40000
    449.11,  2722.90000,  1040.80000
    449.59,  2718.20000,  1048.50000
    450.06,  2723.10000,  1048.20000
    450.54,  2731.80000,  1045.30000
    451.02,  2759.20000,  1054.10000
    451.49,  2771.80000,  1049.00000
    451.97,  2765.80000,  1058.60000
    452.44,  2748.60000,  1063.60000
    452.92,  2728.10000,  1055.30000
    453.39,  2709.90000,  1044.60000
    453.87,  2717.60000,  1050.80000
    454.34,  2728.80000,  1042.50000
    454.82,  2738.50000,  1050.90000
    455.29,  2747.20000,  1054.80000
    455.77,  2751.80000,  1054.10000
    456.24,  2724.50000,  1045.10000
    456.72,  2706.80000,  1045.80000
    457.19,  2704.10000,  1050.30000
    457.67,  2716.70000,  1055.60000
    458.14,  2745.10000,  1050.10000
    458.62,  2744.70000,  1053.70000
    459.09,  2730.90000,  1053.50000
    459.57,  2710.40000,  1053.80000
    460.04,  2720.60000,  1052.30000
    460.52,  2722.60000,  1051.40000
    460.99,  2722.80000,  1044.20000
    461.47,  2718.90000,  1040.50000
    461.94,  2693.10000,  1045.70000
    462.42,  2686.30000,  1048.40000
    462.89,  2704.10000,  1045.60000
    463.37,  2716.90000,  1053.60000
    463.84,  2719.20000,  1060.30000
    464.32,  2729.70000,  1056.80000
    464.79,  2723.10000,  1059.10000
    465.26,  2724.70000,  1059.10000
    465.74,  2714.50000,  1049.70000
    466.21,  2742.50000,  1045.40000
    466.69,  2749.50000,  1044.60000
    467.16,  2753.20000,  1044.10000
    467.64,  2739.50000,  1039.70000
    468.11,  2719.90000,  1039.60000
    468.59,  2712.00000,  1035.90000
    469.06,  2727.80000,  1042.60000
    469.54,  2752.10000,  1048.80000
    470.01,  2754.70000,  1044.90000
    470.48,  2713.40000,  1045.10000
    470.96,  2726.70000,  1048.10000
    471.43,  2750.60000,  1047.50000
    471.91,  2772.10000,  1054.30000
    472.38,  2813.30000,  1054.50000
    472.86,  2792.20000,  1040.80000
    473.33,  2733.60000,  1046.00000
    473.80,  2722.50000,  1049.30000
    474.28,  2729.00000,  1044.20000
    474.75,  2738.10000,  1047.80000
    475.23,  2778.90000,  1041.70000
    475.70,  2774.10000,  1042.40000
    476.17,  2747.30000,  1049.00000
    476.65,  2740.20000,  1051.70000
    477.12,  2742.00000,  1042.90000
    477.60,  2712.10000,  1029.00000
    478.07,  2723.40000,  1020.00000
    478.54,  2738.70000,  1025.40000
    479.02,  2742.80000,  1041.70000
    479.49,  2763.70000,  1059.70000
    479.97,  2763.50000,  1062.50000
    480.44,  2750.10000,  1050.80000
    480.91,  2722.10000,  1042.60000
    481.39,  2719.90000,  1034.30000
    481.86,  2717.60000,  1040.20000
    482.34,  2703.70000,  1045.70000
    482.81,  2720.80000,  1046.00000
    483.28,  2746.50000,  1044.70000
    483.76,  2727.30000,  1043.90000
    484.23,  2741.40000,  1039.30000
    484.70,  2719.90000,  1039.10000
    485.18,  2710.00000,  1042.20000
    485.65,  2717.40000,  1052.00000
    486.12,  2723.90000,  1057.40000
    486.60,  2707.40000,  1059.80000
    487.07,  2710.00000,  1058.30000
    487.55,  2731.00000,  1050.70000
    488.02,  2760.40000,  1042.90000
    488.49,  2761.70000,  1044.10000
    488.97,  2775.20000,  1043.50000
    489.44,  2761.10000,  1040.70000
    489.91,  2718.60000,  1041.90000
    490.39,  2710.60000,  1044.30000
    490.86,  2680.30000,  1041.10000
    491.33,  2648.70000,  1045.00000
    491.81,  2688.10000,  1052.40000
    492.28,  2730.30000,  1035.70000
    492.75,  2730.80000,  1022.60000
    493.23,  2779.80000,  1018.00000
    493.70,  2802.20000,  1013.10000
    494.17,  2793.80000,  1022.00000
    494.64,  2786.90000,  1025.10000
    495.12,  2744.70000,  1027.70000
    495.59,  2737.60000,  1036.30000
    496.06,  2765.10000,  1037.80000
    496.54,  2785.40000,  1032.80000
    497.01,  2767.80000,  1029.70000
    497.48,  2751.00000,  1024.90000
    497.96,  2726.00000,  1022.20000
    498.43,  2759.30000,  1017.40000
    498.90,  2767.50000,  1014.00000
    499.37,  2794.30000,  1014.70000
    499.85,  2767.80000,  1023.30000
    500.32,  2757.80000,  1037.60000
    500.79,  2739.40000,  1033.50000
    501.27,  2742.60000,  1032.20000
    501.74,  2736.10000,  1026.80000
    502.21,  2737.40000,  1022.30000
    502.68,  2723.70000,  1024.00000
    503.16,  2715.10000,  1022.80000
    503.63,  2707.40000,  1017.00000
    504.10,  2718.50000,  1022.70000
    504.57,  2711.00000,  1028.90000
    505.05,  2724.20000,  1035.40000
    505.52,  2742.90000,  1036.10000
    505.99,  2741.70000,  1028.70000
    506.46,  2735.40000,  1025.00000
    506.94,  2722.40000,  1032.10000
    507.41,  2705.20000,  1037.70000
    507.88,  2709.40000,  1030.20000
    508.35,  2711.30000,  1017.80000
    508.83,  2704.60000,  1002.90000
    509.30,  2735.80000,   994.70000
    509.77,  2744.00000,  1002.00000
    510.24,  2745.50000,  1000.90000
    510.72,  2733.20000,  1005.70000
    511.19,  2714.40000,  1020.80000
    511.66,  2703.30000,  1031.90000
    512.13,  2733.70000,  1023.10000
    512.60,  2717.90000,  1022.90000
    513.08,  2713.40000,  1011.20000
    513.55,  2711.60000,  1012.30000
    514.02,  2693.50000,  1015.30000
    514.49,  2691.90000,  1018.90000
    514.97,  2707.30000,  1011.50000
    515.44,  2721.30000,  1013.00000
    515.91,  2717.60000,  1019.00000
    516.38,  2719.90000,  1027.00000
    516.85,  2686.40000,  1025.90000
    517.33,  2669.80000,  1024.50000
    517.80,  2665.00000,  1028.30000
    518.27,  2694.30000,  1022.00000
    518.74,  2729.10000,  1023.30000
    519.21,  2769.30000,  1006.00000
    519.68,  2752.00000,  1001.60000
    520.16,  2724.50000,   998.90000
    520.63,  2703.70000,   999.10000
    521.10,  2691.30000,  1006.00000
    521.57,  2714.10000,  1012.70000
    522.04,  2733.00000,  1002.70000
    522.52,  2729.60000,  1002.50000
    522.99,  2714.80000,  1001.70000
    523.46,  2735.00000,   995.30000
    523.93,  2737.20000,  1004.70000
    524.40,  2764.70000,  1002.50000
    524.87,  2753.00000,  1001.80000
    525.34,  2740.80000,   996.40000
    525.82,  2724.30000,  1001.90000
    526.29,  2732.20000,  1004.40000
    526.76,  2729.20000,  1010.10000
    527.23,  2753.40000,   998.50000
    527.70,  2738.10000,   989.70000
    528.17,  2728.40000,   994.00000
    528.64,  2711.00000,  1011.50000
    529.12,  2711.70000,  1014.00000
    529.59,  2710.80000,  1011.10000
    530.06,  2717.20000,  1010.90000
    530.53,  2761.20000,   999.40000
    531.00,  2738.40000,   998.00000
    531.47,  2696.30000,   992.60000
    531.94,  2691.10000,   988.40000
    532.41,  2685.80000,   988.10000
    532.89,  2697.70000,  1008.80000
    533.36,  2764.50000,  1005.70000
    533.83,  2751.20000,  1005.50000
    534.30,  2735.20000,   995.60000
    534.77,  2737.00000,  1003.20000
    535.24,  2732.20000,  1009.80000
    535.71,  2722.20000,  1022.90000
    536.18,  2736.70000,  1018.70000
    536.65,  2738.80000,  1023.00000
    537.13,  2716.80000,  1024.80000
    537.60,  2702.00000,  1022.50000
    538.07,  2706.20000,  1018.60000
    538.54,  2692.70000,  1017.90000
    539.01,  2709.50000,  1017.40000
    539.48,  2746.00000,  1017.80000
    539.95,  2747.50000,  1025.80000
    540.42,  2753.70000,  1023.50000
    540.89,  2745.20000,  1020.30000
    541.36,  2721.20000,  1021.70000
    541.83,  2717.90000,  1021.00000
    542.30,  2718.70000,  1021.80000
    542.77,  2727.10000,  1022.90000
    543.25,  2757.20000,  1018.20000
    543.72,  2760.30000,  1025.20000
    544.19,  2752.40000,  1037.30000
    544.66,  2723.80000,  1046.50000
    545.13,  2703.70000,  1051.80000
    545.60,  2691.80000,  1039.40000
    546.07,  2718.90000,  1037.90000
    546.54,  2732.80000,  1042.00000
    547.01,  2733.40000,  1052.20000
    547.48,  2729.10000,  1060.10000
    547.95,  2721.90000,  1057.60000
    548.42,  2715.60000,  1042.40000
    548.89,  2749.60000,  1036.90000
    549.36,  2743.70000,  1036.90000
    549.83,  2723.90000,  1049.50000
    550.30,  2767.70000,  1056.60000
    550.77,  2766.50000,  1058.80000
    551.24,  2772.50000,  1056.20000
    551.71,  2782.80000,  1064.40000
    552.18,  2748.60000,  1077.70000
    552.65,  2694.90000,  1085.10000
    553.12,  2721.40000,  1079.80000
    553.59,  2728.50000,  1066.60000
    554.06,  2729.20000,  1062.50000
    554.53,  2738.30000,  1065.20000
    555.00,  2731.70000,  1065.80000
    555.47,  2718.20000,  1070.60000
    555.94,  2711.40000,  1071.60000
    556.41,  2711.10000,  1069.80000
    556.88,  2692.70000,  1070.50000
    557.35,  2693.90000,  1066.20000
    557.82,  2689.10000,  1066.10000
    558.29,  2702.60000,  1063.20000
    558.76,  2740.60000,  1065.50000
    559.23,  2755.70000,  1069.10000
    559.70,  2758.00000,  1066.60000
    560.17,  2746.40000,  1070.60000
    560.64,  2733.00000,  1074.10000
    561.11,  2723.30000,  1065.20000
    561.58,  2753.90000,  1061.90000
    562.05,  2739.00000,  1072.10000
    562.52,  2748.10000,  1080.90000
    562.99,  2739.40000,  1089.50000
    563.46,  2737.70000,  1097.20000
    563.93,  2732.80000,  1087.50000
    564.40,  2744.50000,  1077.40000
    564.87,  2745.80000,  1075.00000
    565.34,  2767.40000,  1068.30000
    565.81,  2757.30000,  1065.30000
    566.28,  2750.60000,  1066.90000
    566.74,  2730.60000,  1065.30000
    567.21,  2720.00000,  1074.90000
    567.68,  2726.30000,  1085.10000
    568.15,  2718.20000,  1088.10000
    568.62,  2707.30000,  1104.10000
    569.09,  2709.20000,  1096.60000
    569.56,  2708.90000,  1081.40000
    570.03,  2715.40000,  1072.80000
    570.50,  2757.00000,  1067.10000
    570.97,  2754.40000,  1063.60000
    571.44,  2736.20000,  1082.00000
    571.91,  2763.60000,  1060.50000
    572.38,  2770.10000,  1046.00000
    572.84,  2752.60000,  1052.20000
    573.31,  2762.50000,  1062.20000
    573.78,  2744.50000,  1074.20000
    574.25,  2716.90000,  1092.80000
    574.72,  2740.30000,  1091.70000
    575.19,  2737.00000,  1091.00000
    575.66,  2728.50000,  1099.80000
    576.13,  2721.90000,  1099.10000
    576.60,  2731.10000,  1095.80000
    577.07,  2756.10000,  1089.90000
    577.53,  2776.30000,  1093.20000
    578.00,  2774.80000,  1090.20000
    578.47,  2765.10000,  1087.30000
    578.94,  2737.20000,  1078.60000
    579.41,  2706.90000,  1078.10000
    579.88,  2716.60000,  1079.40000
    580.35,  2718.60000,  1085.40000
    580.82,  2728.40000,  1086.90000
    581.28,  2751.10000,  1091.10000
    581.75,  2755.50000,  1083.10000
    582.22,  2748.40000,  1082.20000
    582.69,  2750.90000,  1086.00000
    583.16,  2748.80000,  1079.50000
    583.63,  2737.50000,  1069.90000
    584.10,  2755.20000,  1085.50000
    584.56,  2765.70000,  1086.10000
    585.03,  2756.00000,  1091.20000
    585.50,  2753.30000,  1092.20000
    585.97,  2729.00000,  1085.90000
    586.44,  2722.20000,  1074.40000
    586.91,  2740.20000,  1074.70000
    587.37,  2746.60000,  1069.20000
    587.84,  2731.40000,  1080.60000
    588.31,  2721.20000,  1082.50000
    588.78,  2685.20000,  1086.00000
    589.25,  2715.30000,  1081.30000
    589.72,  2714.10000,  1072.00000
    590.18,  2739.80000,  1068.10000
    590.65,  2762.40000,  1077.70000
    591.12,  2747.30000,  1074.10000
    591.59,  2746.40000,  1071.90000
    592.06,  2728.60000,  1082.60000
    592.52,  2690.50000,  1083.10000
    592.99,  2698.10000,  1086.60000
    593.46,  2695.20000,  1087.70000
    593.93,  2657.60000,  1085.90000
    594.40,  2689.40000,  1078.60000
    594.86,  2709.00000,  1080.60000
    595.33,  2733.50000,  1075.50000
    595.80,  2747.30000,  1076.20000
    596.27,  2751.00000,  1070.90000
    596.74,  2728.20000,  1074.80000
    597.20,  2719.40000,  1068.60000
    597.67,  2734.80000,  1064.10000
    598.14,  2721.60000,  1064.90000
    598.61,  2719.20000,  1066.60000
    599.07,  2723.70000,  1061.40000
    599.54,  2707.30000,  1064.90000
    600.01,  2685.30000,  1073.50000
    600.48,  2737.00000,  1074.90000
    600.95,  2760.70000,  1078.10000
    601.41,  2778.10000,  1080.20000
    601.88,  2765.30000,  1078.40000
    602.35,  2714.40000,  1072.40000
    602.82,  2666.40000,  1063.70000
    603.28,  2684.90000,  1051.50000
    603.75,  2682.70000,  1046.30000
    604.22,  2702.50000,  1048.60000
    604.69,  2710.70000,  1053.40000
    605.15,  2716.10000,  1064.40000
    605.62,  2713.90000,  1066.90000
    606.09,  2716.60000,  1063.50000
    606.56,  2699.10000,  1058.90000
    607.02,  2703.80000,  1048.80000
    607.49,  2702.70000,  1034.30000
    607.96,  2726.00000,  1031.90000
    608.42,  2729.70000,  1028.80000
    608.89,  2784.30000,  1028.50000
    609.36,  2788.80000,  1041.00000
    609.83,  2770.80000,  1052.70000
    610.29,  2734.50000,  1055.20000
    610.76,  2703.20000,  1057.30000
    611.23,  2691.10000,  1038.40000
    611.69,  2728.10000,  1031.30000
    612.16,  2728.70000,  1024.80000
    612.63,  2733.60000,  1025.40000
    613.10,  2720.20000,  1020.30000
    613.56,  2696.30000,  1023.00000
    614.03,  2706.30000,  1014.10000
    614.50,  2712.30000,  1025.90000
    614.96,  2722.20000,  1026.70000
    615.43,  2731.60000,  1029.50000
    615.90,  2747.90000,  1026.30000
    616.36,  2745.20000,  1016.80000
    616.83,  2735.40000,  1002.00000
    617.30,  2726.10000,  1009.60000
    617.76,  2704.40000,  1001.80000
    618.23,  2681.10000,  1004.20000
    618.70,  2673.90000,  1012.10000
    619.16,  2682.20000,  1019.40000
    619.63,  2679.30000,  1015.10000
    620.10,  2689.40000,  1014.30000
    620.56,  2701.00000,   995.40000
    621.03,  2732.70000,   987.40000
    621.50,  2745.00000,   980.00000
    621.96,  2750.30000,   984.30000
    622.43,  2739.40000,   987.00000
    622.90,  2733.60000,   996.90000
    623.36,  2736.70000,   995.50000
    623.83,  2737.50000,  1005.40000
    624.30,  2733.20000,   999.80000
    624.76,  2740.60000,   993.10000
    625.23,  2741.80000,   992.40000
    625.70,  2755.50000,   985.60000
    626.16,  2760.70000,   974.90000
    626.63,  2727.40000,   985.70000
    627.09,  2719.90000,   988.20000
    627.56,  2734.20000,   987.90000
    628.03,  2724.00000,   991.20000
    628.49,  2731.30000,   986.70000
    628.96,  2720.50000,   980.60000
    629.43,  2711.60000,   981.10000
    629.89,  2704.20000,   987.50000
    630.36,  2715.10000,   983.90000
    630.82,  2705.50000,   984.50000
    631.29,  2703.80000,   986.30000
    631.76,  2693.10000,   974.90000
    632.22,  2679.10000,   971.30000
    632.69,  2677.90000,   983.20000
    633.15,  2699.90000,   985.50000
    633.62,  2728.10000,   985.80000
    634.09,  2748.20000,   979.90000
    634.55,  2762.40000,   960.00000
    635.02,  2740.60000,   957.40000
    635.48,  2725.50000,   962.70000
    635.95,  2708.20000,   973.40000
    636.42,  2704.60000,   984.30000
    636.88,  2687.20000,   988.30000
    637.35,  2690.80000,   976.60000
    637.81,  2703.30000,   970.90000
    638.28,  2714.20000,   960.90000
    638.74,  2730.10000,   959.40000
    639.21,  2741.80000,   959.20000
    639.68,  2716.30000,   962.50000
    640.14,  2687.90000,   967.80000
    640.61,  2693.30000,   973.20000
    641.07,  2669.70000,   973.40000
    641.54,  2687.90000,   966.90000
    642.00,  2707.60000,   958.80000
    642.47,  2727.90000,   942.40000
    642.93,  2729.00000,   937.60000
    643.40,  2726.90000,   946.30000
    643.87,  2704.70000,   961.10000
    644.33,  2710.10000,   964.10000
    644.80,  2722.00000,   964.70000
    645.26,  2724.10000,   947.60000
    645.73,  2713.10000,   942.20000
    646.19,  2695.50000,   943.90000
    646.66,  2695.10000,   946.70000
    647.12,  2685.60000,   944.50000
    647.59,  2703.00000,   945.80000
    648.05,  2715.20000,   950.90000
    648.52,  2708.40000,   959.10000
    648.98,  2700.10000,   966.10000
    649.45,  2685.30000,   963.70000
    649.91,  2663.10000,   957.80000
    650.38,  2669.50000,   953.90000
    650.84,  2716.80000,   953.90000
    651.31,  2715.70000,   946.10000
    651.77,  2720.60000,   946.80000
    652.24,  2693.00000,   954.10000
    652.70,  2676.90000,   951.40000
    653.17,  2665.90000,   951.80000
    653.63,  2692.40000,   957.30000
    654.10,  2682.30000,   954.50000
    654.56,  2696.20000,   963.40000
    655.03,  2693.00000,   964.30000
    655.49,  2701.40000,   957.50000
    655.96,  2700.40000,   951.80000
    656.42,  2689.00000,   955.60000
    656.89,  2672.40000,   958.30000
    657.35,  2724.80000,   966.60000
    657.82,  2775.30000,   953.20000
    658.28,  2812.80000,   948.40000
    658.75,  2826.70000,   943.30000
    659.21,  2779.90000,   947.60000
    659.68,  2741.20000,   945.60000
    660.14,  2734.90000,   933.30000
    660.61,  2706.60000,   917.70000
    661.07,  2742.90000,   905.80000
    661.53,  2755.30000,   917.50000
    662.00,  2773.30000,   929.20000
    662.46,  2767.10000,   930.10000
    662.93,  2750.20000,   927.30000
    663.39,  2718.60000,   926.30000
    663.86,  2745.80000,   917.20000
    664.32,  2736.70000,   925.60000
    664.79,  2759.60000,   917.80000
    665.25,  2746.50000,   911.20000
    665.71,  2725.80000,   905.10000
    666.18,  2696.10000,   906.10000
    666.64,  2724.60000,   902.10000
    667.11,  2717.90000,   905.40000
    667.57,  2731.90000,   912.10000
    668.04,  2742.90000,   926.30000
    668.50,  2731.60000,   929.40000
    668.96,  2708.70000,   930.60000
    669.43,  2731.80000,   931.80000
    669.89,  2707.50000,   927.90000
    670.36,  2688.70000,   928.20000
    670.82,  2684.20000,   928.00000
    671.28,  2693.60000,   924.30000
    671.75,  2695.90000,   918.30000
    672.21,  2720.90000,   920.10000
    672.68,  2725.00000,   915.40000
    673.14,  2733.00000,   913.00000
    673.60,  2744.20000,   912.20000
    674.07,  2726.10000,   914.50000
    674.53,  2698.00000,   917.20000
    675.00,  2693.30000,   914.60000
    675.46,  2685.10000,   906.90000
    675.92,  2685.90000,   897.50000
    676.39,  2724.20000,   892.30000
    676.85,  2726.90000,   889.70000
    677.31,  2732.30000,   892.40000
    677.78,  2742.00000,   888.30000
    678.24,  2727.50000,   893.30000
    678.70,  2705.60000,   898.80000
    679.17,  2690.50000,   902.50000
    679.63,  2661.40000,   900.90000
    680.10,  2659.20000,   894.70000
    680.56,  2684.40000,   887.30000
    681.02,  2687.60000,   889.00000
    681.49,  2721.80000,   887.30000
    681.95,  2713.90000,   886.00000
    682.41,  2703.60000,   883.20000
    682.88,  2698.60000,   879.60000
    683.34,  2697.10000,   883.30000
    683.80,  2680.60000,   875.20000
    684.27,  2700.50000,   871.10000
    684.73,  2699.00000,   867.60000
    685.19,  2722.20000,   867.90000
    685.66,  2747.20000,   872.10000
    686.12,  2745.00000,   878.10000
    686.58,  2761.10000,   866.30000
    687.05,  2756.60000,   858.80000
    687.51,  2739.50000,   856.00000
    687.97,  2732.80000,   851.10000
    688.44,  2735.90000,   851.90000
    688.90,  2726.70000,   858.40000
    689.36,  2730.10000,   858.20000
    689.83,  2729.10000,   867.60000
    690.29,  2734.50000,   883.30000
    690.75,  2739.90000,   884.20000
    691.21,  2748.40000,   876.50000
    691.68,  2731.90000,   870.00000
    692.14,  2708.70000,   857.20000
    692.60,  2723.30000,   857.20000
    693.07,  2712.50000,   859.30000
    693.53,  2729.40000,   863.30000
    693.99,  2745.80000,   861.30000
    694.45,  2739.50000,   862.10000
    694.92,  2748.30000,   861.60000
    695.38,  2762.30000,   860.10000
    695.84,  2744.80000,   855.40000
    696.31,  2736.00000,   854.70000
    696.77,  2747.20000,   856.20000
    697.23,  2736.50000,   852.20000
    697.69,  2738.20000,   847.50000
    698.16,  2729.90000,   839.70000
    698.62,  2711.60000,   838.50000
    699.08,  2683.70000,   849.70000
    699.54,  2680.60000,   860.10000
    700.01,  2667.50000,   858.40000
    700.47,  2666.90000,   846.50000
    700.93,  2677.00000,   834.90000
    701.39,  2693.10000,   834.60000
    701.86,  2704.90000,   843.90000
    702.32,  2702.40000,   853.80000
    702.78,  2706.90000,   852.60000
    703.24,  2701.30000,   847.40000
    703.71,  2702.80000,   851.90000
    704.17,  2714.10000,   853.70000
    704.63,  2707.90000,   854.40000
    705.09,  2692.40000,   856.90000
    705.56,  2722.70000,   848.20000
    706.02,  2726.60000,   837.80000
    706.48,  2711.10000,   840.50000
    706.94,  2706.00000,   842.60000
    707.40,  2682.80000,   843.10000
    707.87,  2676.10000,   848.90000
    708.33,  2693.90000,   844.00000
    708.79,  2682.10000,   839.50000
    709.25,  2648.20000,   842.10000
    709.72,  2657.30000,   850.90000
    710.18,  2675.70000,   852.00000
    710.64,  2681.20000,   856.70000
    711.10,  2682.90000,   845.60000
    711.56,  2699.30000,   838.40000
    712.03,  2716.10000,   828.70000
    712.49,  2743.70000,   827.30000
    712.95,  2762.70000,   829.10000
    713.41,  2740.30000,   833.90000
    713.87,  2728.70000,   835.20000
    714.33,  2730.20000,   835.60000
    714.80,  2721.70000,   835.10000
    715.26,  2677.40000,   837.10000
    715.72,  2675.30000,   836.60000
    716.18,  2669.70000,   839.40000
    716.64,  2685.70000,   838.50000
    717.11,  2696.00000,   822.80000
    717.57,  2689.50000,   822.40000
    718.03,  2653.80000,   823.00000
    718.49,  2667.10000,   825.30000
    718.95,  2714.60000,   828.30000
    719.41,  2727.30000,   827.30000
    719.87,  2703.60000,   818.20000
    720.34,  2696.50000,   816.90000
    720.80,  2688.90000,   814.10000
    721.26,  2680.90000,   817.70000
    721.72,  2714.40000,   815.60000
    722.18,  2700.60000,   814.70000
    722.64,  2667.70000,   819.50000
    723.10,  2681.70000,   815.80000
    723.57,  2697.90000,   811.50000
    724.03,  2703.90000,   818.70000
    724.49,  2703.90000,   820.60000
    724.95,  2668.10000,   817.00000
    725.41,  2719.10000,   823.00000
    725.87,  2768.70000,   820.70000
    726.33,  2794.30000,   818.90000
    726.80,  2795.70000,   830.00000
    727.26,  2751.10000,   826.80000
    727.72,  2669.00000,   826.30000
    728.18,  2681.10000,   821.00000
    728.64,  2677.70000,   815.40000
    729.10,  2691.40000,   810.70000
    729.56,  2710.90000,   811.20000
    730.02,  2732.60000,   805.60000
    730.48,  2727.50000,   816.00000
    730.94,  2716.10000,   813.00000
    731.41,  2701.80000,   821.10000
    731.87,  2674.70000,   833.40000
    732.33,  2656.00000,   835.40000
    732.79,  2685.40000,   837.60000
    733.25,  2686.40000,   836.10000
    733.71,  2697.70000,   826.70000
    734.17,  2713.00000,   817.70000
    734.63,  2694.30000,   818.30000
    735.09,  2671.10000,   820.50000
    735.55,  2673.40000,   823.00000
    736.01,  2663.70000,   813.30000
    736.47,  2676.90000,   805.60000
    736.94,  2681.90000,   802.30000
    737.40,  2693.40000,   801.40000
    737.86,  2690.20000,   805.70000
    738.32,  2702.20000,   808.50000
    738.78,  2715.40000,   814.50000
    739.24,  2709.20000,   812.80000
    739.70,  2700.20000,   821.20000
    740.16,  2727.60000,   812.60000
    740.62,  2737.40000,   803.20000
    741.08,  2756.90000,   799.70000
    741.54,  2748.40000,   809.10000
    742.00,  2719.50000,   818.20000
    742.46,  2686.90000,   827.10000
    742.92,  2663.10000,   822.20000
    743.38,  2662.60000,   806.00000
    743.84,  2667.20000,   798.50000
    744.30,  2684.50000,   795.90000
    744.76,  2697.30000,   796.10000
    745.22,  2698.30000,   795.20000
    745.68,  2673.10000,   802.10000
    746.14,  2664.50000,   802.30000
    746.60,  2661.30000,   820.70000
    747.06,  2672.40000,   820.40000
    747.52,  2663.70000,   809.90000
    747.98,  2685.90000,   807.50000
    748.44,  2693.40000,   805.10000
    748.90,  2687.50000,   806.60000
    749.36,  2691.10000,   812.00000
    749.82,  2704.50000,   804.50000
    750.28,  2711.70000,   802.50000
    750.74,  2735.90000,   812.00000
    751.20,  2735.50000,   810.30000
    751.66,  2711.40000,   811.00000
    752.12,  2694.50000,   803.60000
    752.58,  2691.90000,   807.90000
    753.04,  2708.10000,   812.00000
    753.50,  2735.80000,   816.40000
    753.96,  2722.30000,   812.60000
    754.42,  2694.60000,   807.70000
    754.88,  2678.50000,   799.70000
    755.34,  2664.80000,   808.80000
    755.80,  2684.10000,   812.10000
    756.26,  2699.60000,   808.00000
    756.72,  2709.70000,   801.50000
    757.18,  2715.50000,   797.70000
    757.64,  2706.10000,   798.40000
    758.10,  2672.30000,   805.60000
    758.56,  2649.30000,   812.00000
    759.02,  2655.70000,   811.10000
    759.48,  2668.60000,   810.70000
    759.94,  2693.10000,   795.90000
    760.40,  2695.10000,   790.30000
    760.86,  2690.00000,   785.60000
    761.32,  2693.50000,   784.90000
    761.78,  2716.90000,   804.70000
    762.24,  2699.00000,   821.40000
    762.70,  2702.10000,   821.70000
    763.15,  2680.80000,   814.50000
    763.61,  2684.80000,   804.50000
    764.07,  2698.70000,   796.40000
    764.53,  2695.00000,   811.30000
    764.99,  2707.50000,   816.10000
    765.45,  2730.60000,   815.50000
    765.91,  2713.90000,   807.70000
    766.37,  2700.30000,   802.90000
    766.83,  2674.60000,   797.70000
    767.29,  2669.30000,   799.10000
    767.75,  2679.10000,   796.00000
    768.21,  2699.00000,   792.30000
    768.66,  2702.90000,   807.30000
    769.12,  2705.30000,   822.20000
    769.58,  2683.70000,   825.00000
    770.04,  2674.70000,   817.30000
    770.50,  2646.50000,   812.20000
    770.96,  2638.60000,   799.70000
    771.42,  2666.30000,   807.50000
    771.88,  2684.30000,   811.50000
    772.34,  2692.10000,   810.80000
    772.80,  2680.50000,   805.20000
    773.25,  2658.80000,   807.40000
    773.71,  2653.70000,   806.30000
    774.17,  2641.60000,   813.50000
    774.63,  2660.50000,   814.60000
    775.09,  2677.10000,   810.50000
    775.55,  2661.40000,   815.80000
    776.01,  2636.10000,   812.20000
    776.47,  2644.90000,   803.60000
    776.92,  2627.00000,   801.70000
    777.38,  2662.20000,   802.80000
    777.84,  2675.20000,   802.40000
    778.30,  2662.40000,   815.60000
    778.76,  2646.30000,   813.50000
    779.22,  2662.30000,   809.50000
    779.68,  2661.90000,   810.70000
    780.13,  2672.00000,   811.20000
    780.59,  2661.90000,   806.40000
    781.05,  2647.60000,   803.20000
    781.51,  2654.70000,   802.70000
    781.97,  2668.60000,   801.40000
    782.43,  2677.70000,   803.70000
    782.88,  2694.10000,   808.10000
    783.34,  2685.90000,   807.70000
    783.80,  2681.70000,   813.00000
    784.26,  2697.20000,   815.20000
    784.72,  2684.60000,   807.10000
    785.18,  2673.30000,   799.90000
    785.63,  2663.40000,   799.20000
    786.09,  2678.80000,   796.30000
    786.55,  2705.80000,   806.30000
    787.01,  2726.80000,   801.60000
    787.47,  2709.50000,   793.10000
    787.92,  2679.60000,   790.10000
    788.38,  2654.10000,   795.40000
    788.84,  2641.30000,   803.80000
    789.30,  2650.50000,   814.20000
    789.76,  2657.60000,   815.20000
    790.21,  2663.10000,   800.40000
    790.67,  2647.90000,   802.30000
    791.13,  2650.50000,   806.10000
    791.59,  2625.50000,   816.10000
    792.05,  2628.20000,   816.30000
    792.50,  2644.10000,   810.90000
    792.96,  2669.20000,   789.50000
    793.42,  2644.00000,   786.90000
    793.88,  2653.50000,   792.20000
    794.33,  2630.90000,   799.90000
    794.79,  2635.20000,   801.00000
    795.25,  2648.30000,   803.00000
    795.71,  2667.00000,   801.30000
    796.17,  2667.50000,   796.40000
    796.62,  2673.00000,   796.80000
    797.08,  2645.30000,   787.80000
    797.54,  2642.00000,   778.90000
    798.00,  2635.80000,   780.30000
    798.45,  2644.00000,   791.50000
    798.91,  2650.80000,   799.50000
    799.37,  2660.00000,   803.60000
    799.83,  2654.70000,   800.40000
    800.28,  2643.50000,   792.10000
    800.74,  2637.00000,   789.70000
    801.20,  2654.00000,   801.40000
    801.66,  2631.10000,   808.40000
    802.11,  2645.80000,   802.50000
    802.57,  2664.20000,   804.80000
    803.03,  2647.30000,   795.60000
    803.48,  2632.00000,   790.00000
    803.94,  2678.50000,   803.90000
    804.40,  2688.90000,   806.10000
    804.86,  2706.30000,   803.20000
    805.31,  2698.60000,   798.20000
    805.77,  2660.70000,   779.80000
    806.23,  2611.00000,   766.20000
    806.69,  2639.60000,   776.20000
    807.14,  2650.70000,   780.10000
    807.60,  2670.00000,   780.60000
    808.06,  2672.20000,   781.80000
    808.51,  2670.10000,   776.90000
    808.97,  2637.00000,   781.50000
    809.43,  2633.90000,   792.00000
    809.88,  2633.10000,   794.10000
    810.34,  2625.90000,   794.00000
    810.80,  2650.70000,   789.40000
    811.26,  2664.90000,   787.30000
    811.71,  2655.00000,   786.40000
    812.17,  2666.50000,   783.30000
    812.63,  2664.20000,   775.50000
    813.08,  2635.80000,   774.80000
    813.54,  2647.70000,   759.70000
    814.00,  2651.10000,   768.10000
    814.45,  2646.70000,   779.80000
    814.91,  2658.50000,   787.60000
    815.37,  2648.30000,   789.40000
    815.82,  2637.30000,   789.00000
    816.28,  2633.60000,   771.40000
    816.74,  2642.90000,   769.30000
    817.19,  2618.00000,   768.80000
    817.65,  2629.30000,   765.60000
    818.11,  2649.10000,   773.60000
    818.56,  2652.60000,   778.80000
    819.02,  2642.90000,   779.40000
    819.48,  2648.90000,   781.80000
    819.93,  2607.70000,   779.90000
    820.39,  2630.40000,   775.20000
    820.84,  2667.80000,   777.20000
    821.30,  2682.60000,   781.20000
    821.76,  2682.90000,   791.60000
    822.21,  2685.60000,   793.70000
    822.67,  2651.00000,   794.90000
    823.13,  2613.10000,   786.90000
    823.58,  2646.30000,   782.90000
    824.04,  2669.10000,   789.10000
    824.49,  2675.40000,   787.30000
    824.95,  2685.80000,   780.60000
    825.41,  2688.60000,   769.80000
    825.86,  2663.90000,   763.00000
    826.32,  2692.20000,   769.20000
    826.78,  2679.60000,   767.60000
    827.23,  2649.70000,   763.90000
    827.69,  2623.70000,   768.00000
    828.14,  2627.60000,   770.60000
    828.60,  2647.60000,   779.00000
    829.06,  2667.40000,   786.00000
    829.51,  2663.40000,   776.50000
    829.97,  2661.60000,   770.60000
    830.42,  2653.20000,   766.10000
    830.88,  2646.80000,   764.30000
    831.34,  2650.10000,   761.00000
    831.79,  2673.50000,   758.70000
    832.25,  2676.60000,   761.30000
    832.70,  2669.90000,   760.10000
    833.16,  2671.90000,   760.30000
    833.61,  2666.70000,   754.00000
    834.07,  2662.60000,   750.20000
    834.53,  2665.00000,   744.90000
    834.98,  2652.40000,   752.10000
    835.44,  2628.00000,   755.70000
    835.89,  2636.80000,   759.40000
    836.35,  2653.50000,   757.10000
    836.80,  2681.70000,   757.60000
    837.26,  2667.30000,   752.30000
    837.71,  2645.10000,   751.40000
    838.17,  2629.20000,   756.80000
    838.63,  2620.40000,   764.10000
    839.08,  2622.30000,   769.80000
    839.54,  2640.60000,   771.50000
    839.99,  2633.20000,   767.40000
    840.45,  2648.80000,   757.90000
    840.90,  2663.70000,   763.80000
    841.36,  2674.00000,   770.00000
    841.81,  2666.50000,   771.90000
    842.27,  2651.70000,   774.40000
    842.72,  2633.40000,   769.40000
    843.18,  2644.40000,   756.70000
    843.63,  2626.80000,   752.70000
    844.09,  2632.00000,   746.50000
    844.55,  2624.80000,   749.90000
    845.00,  2616.30000,   753.10000
    845.46,  2622.70000,   761.10000
    845.91,  2637.30000,   760.80000
    846.37,  2646.80000,   755.80000
    846.82,  2671.30000,   746.50000
    847.28,  2680.50000,   747.20000
    847.73,  2634.10000,   741.30000
    848.19,  2659.40000,   753.20000
    848.64,  2665.70000,   758.80000
    849.10,  2681.40000,   760.80000
    849.55,  2680.30000,   762.10000
    850.01,  2669.60000,   758.80000
    850.46,  2615.80000,   764.20000
    850.92,  2645.60000,   768.70000
    851.37,  2657.50000,   763.50000
    851.83,  2660.60000,   756.80000
    852.28,  2659.60000,   752.00000
    852.73,  2643.20000,   746.10000
    853.19,  2610.80000,   752.20000
    853.64,  2619.50000,   753.00000
    854.10,  2623.90000,   753.60000
    854.55,  2632.00000,   747.00000
    855.01,  2638.40000,   749.50000
    855.46,  2615.40000,   753.70000
    855.92,  2600.00000,   751.30000
    856.37,  2620.10000,   734.10000
    856.83,  2626.40000,   723.90000
    857.28,  2648.90000,   717.00000
    857.74,  2646.40000,   729.00000
    858.19,  2637.70000,   745.20000
    858.64,  2644.40000,   765.40000
    859.10,  2633.40000,   770.60000
    859.55,  2607.60000,   771.90000
    860.01,  2659.20000,   774.10000
    860.46,  2686.50000,   770.10000
    860.92,  2686.00000,   758.90000
    861.37,  2686.40000,   753.20000
    861.83,  2670.50000,   755.20000
    862.28,  2638.20000,   761.30000
    862.73,  2659.50000,   766.50000
    863.19,  2652.70000,   766.40000
    863.64,  2633.10000,   761.60000
    864.10,  2623.80000,   747.10000
    864.55,  2643.30000,   742.90000
    865.01,  2638.70000,   740.10000
    865.46,  2651.60000,   738.60000
    865.91,  2640.10000,   737.50000
    866.37,  2633.10000,   748.10000
    866.82,  2620.70000,   753.80000
    867.28,  2612.10000,   772.10000
    867.73,  2607.40000,   758.70000
    868.18,  2632.70000,   756.30000
    868.64,  2635.80000,   748.70000
    869.09,  2666.80000,   740.30000
    869.55,  2677.60000,   745.40000
    870.00,  2664.20000,   752.50000
    870.45,  2652.40000,   750.30000
    870.91,  2620.90000,   757.20000
    871.36,  2595.30000,   762.40000
    871.81,  2622.90000,   757.10000
    872.27,  2647.60000,   767.50000
    872.72,  2652.30000,   762.30000
    873.18,  2648.20000,   762.30000
    873.63,  2622.20000,   755.80000
    874.08,  2613.70000,   756.30000
    874.54,  2628.70000,   756.10000
    874.99,  2626.40000,   766.30000
    875.44,  2609.70000,   760.70000
    875.90,  2596.10000,   751.30000
    876.35,  2599.10000,   748.60000
    876.81,  2632.60000,   753.50000
    877.26,  2666.40000,   754.00000
    877.71,  2655.00000,   759.10000
    878.17,  2624.00000,   763.20000
    878.62,  2642.00000,   753.70000
    879.07,  2663.80000,   751.80000
    879.53,  2681.70000,   751.30000
    879.98,  2672.00000,   757.30000
    880.43,  2655.00000,   757.10000
    880.89,  2638.30000,   760.40000
    881.34,  2647.80000,   752.30000
    881.79,  2661.80000,   747.90000
    882.25,  2651.20000,   743.50000
    882.70,  2622.80000,   750.00000
    883.15,  2610.60000,   751.20000
    883.61,  2628.10000,   755.30000
    884.06,  2613.80000,   756.20000
    884.51,  2633.40000,   758.80000
    884.97,  2620.20000,   755.60000
    885.42,  2630.30000,   756.10000
    885.87,  2623.40000,   765.20000
    886.32,  2637.40000,   769.90000
    886.78,  2611.20000,   761.50000
    887.23,  2621.70000,   764.90000
    887.68,  2615.80000,   757.70000
    888.14,  2626.90000,   758.60000
    888.59,  2609.50000,   768.90000
    889.04,  2592.60000,   768.70000
    889.50,  2565.40000,   761.70000
    889.95,  2583.90000,   772.50000
    890.40,  2619.70000,   766.10000
    890.85,  2638.60000,   767.90000
    891.31,  2628.30000,   768.80000
    891.76,  2625.00000,   770.10000
    892.21,  2608.80000,   767.20000
    892.67,  2616.40000,   777.60000
    893.12,  2617.10000,   775.20000
    893.57,  2622.70000,   777.50000
    894.02,  2628.00000,   776.70000
    894.48,  2653.10000,   770.30000
    894.93,  2657.80000,   755.20000
    895.38,  2655.50000,   757.50000
    895.83,  2624.70000,   768.10000
    896.29,  2624.70000,   772.80000
    896.74,  2616.20000,   788.40000
    897.19,  2636.60000,   790.40000
    897.64,  2648.90000,   787.70000
    898.10,  2649.80000,   787.20000
    898.55,  2628.80000,   786.50000
    899.00,  2625.50000,   778.50000
    899.45,  2588.40000,   786.80000
    899.91,  2574.60000,   799.20000
    900.36,  2561.30000,   804.50000
    900.81,  2599.40000,   802.60000
    901.26,  2617.50000,   797.70000
    901.72,  2641.40000,   789.20000
    902.17,  2628.80000,   788.40000
    902.62,  2624.40000,   800.00000
    903.07,  2593.90000,   798.10000
    903.52,  2609.00000,   802.80000
    903.98,  2616.70000,   793.80000
    904.43,  2632.20000,   787.70000
    904.88,  2622.80000,   775.70000
    905.33,  2628.80000,   775.30000
    905.79,  2619.60000,   769.30000
    906.24,  2635.30000,   770.20000
    906.69,  2654.30000,   763.30000
    907.14,  2645.00000,   784.40000
    907.59,  2602.40000,   802.70000
    908.05,  2579.80000,   820.50000
    908.50,  2564.00000,   820.50000
    908.95,  2584.10000,   808.50000
    909.40,  2600.20000,   794.00000
    909.85,  2598.90000,   789.30000
    910.31,  2600.00000,   789.80000
    910.76,  2585.60000,   793.10000
    911.21,  2569.80000,   793.70000
    911.66,  2567.00000,   803.10000
    912.11,  2555.70000,   819.10000
    912.56,  2583.50000,   824.20000
    913.02,  2611.10000,   824.90000
    913.47,  2614.50000,   822.10000
    913.92,  2613.60000,   817.90000
    914.37,  2600.40000,   823.00000
    914.82,  2589.50000,   834.20000
    915.27,  2606.20000,   840.10000
    915.73,  2625.40000,   846.80000
    916.18,  2621.00000,   853.80000
    916.63,  2598.00000,   872.00000
    917.08,  2564.40000,   876.40000
    917.53,  2594.70000,   890.90000
    917.98,  2488.10000,   895.40000
    918.44,  2829.20000,   908.00000
    918.89,  3012.50000,   915.90000
    919.34,  3059.20000,   934.50000
    919.79,  2973.80000,   937.80000
    920.24,  2813.40000,   950.30000
    920.69,  2492.00000,   968.90000
    921.14,  2614.20000,   994.00000
    921.59,  2606.80000,  1009.40000
    922.05,  2606.80000,  1026.70000
    922.50,  2605.30000,  1069.60000
    922.95,  2626.00000,  1112.80000
    923.40,  2636.80000,  1177.00000
    923.85,  2646.90000,  1240.90000
    924.30,  2650.50000,  1318.10000
    924.75,  2634.30000,  1414.60000
    925.20,  2611.60000,  1549.50000
    925.66,  2595.00000,  1696.20000
    926.11,  2589.90000,  1888.50000
    926.56,  2600.80000,  2092.50000
    927.01,  2616.70000,  2333.00000
    927.46,  2604.40000,  2590.90000
    927.91,  2580.00000,  2838.30000
    928.36,  2552.10000,  3088.70000
    928.81,  2563.00000,  3345.80000
    929.26,  2584.40000,  3614.40000
    929.71,  2622.90000,  3883.80000
    930.16,  2644.80000,  4152.50000
    930.62,  2619.80000,  4387.80000
    931.07,  2601.30000,  4626.60000
    931.52,  2597.70000,  4833.50000
    931.97,  2606.10000,  5038.70000
    932.42,  2616.30000,  5200.60000
    932.87,  2628.40000,  5374.00000
    933.32,  2604.60000,  5567.10000
    933.77,  2622.90000,  5826.90000
    934.22,  2617.00000,  6120.60000
    934.67,  2630.30000,  6421.10000
    935.12,  2623.10000,  6661.40000
    935.57,  2604.40000,  6821.10000
    936.02,  2572.00000,  6915.90000
    936.47,  2592.40000,  6927.80000
    936.93,  2567.30000,  6877.70000
    937.38,  2568.50000,  6812.30000
    937.83,  2584.80000,  6809.40000
    938.28,  2587.70000,  6828.30000
    938.73,  2585.60000,  6894.90000
    939.18,  2605.90000,  6962.00000
    939.63,  2614.30000,  6995.80000
    940.08,  2622.70000,  7075.80000
    940.53,  2642.60000,  7228.60000
    940.98,  2636.40000,  7393.00000
    941.43,  2605.10000,  7539.30000
    941.88,  2591.70000,  7616.10000
    942.33,  2601.50000,  7643.90000
    942.78,  2598.80000,  7680.50000
    943.23,  2621.30000,  7746.00000
    943.68,  2620.80000,  7847.60000
    944.13,  2625.70000,  7954.80000
    944.58,  2633.90000,  8028.80000
    945.03,  2625.80000,  8091.90000
    945.48,  2599.70000,  8117.20000
    945.93,  2596.40000,  8145.30000
    946.38,  2594.10000,  8213.30000
    946.83,  2620.00000,  8316.10000
    947.28,  2632.60000,  8406.30000
    947.73,  2634.40000,  8490.50000
    948.18,  2618.10000,  8503.40000
    948.63,  2602.10000,  8456.10000
    949.08,  2597.70000,  8400.50000
    949.53,  2582.70000,  8397.20000
    949.98,  2562.20000,  8382.60000
    950.43,  2569.20000,  8395.30000
    950.88,  2584.40000,  8349.80000
    951.33,  2599.70000,  8253.20000
    951.78,  2628.50000,  8110.10000
    952.23,  2631.30000,  8001.80000
    952.68,  2610.90000,  7928.10000
    953.13,  2615.30000,  7865.60000
    953.58,  2623.20000,  7747.80000
    954.03,  2612.60000,  7623.00000
    954.48,  2593.60000,  7461.70000
    954.93,  2580.70000,  7327.00000
    955.38,  2569.90000,  7239.90000
    955.83,  2582.00000,  7179.40000
    956.28,  2588.30000,  7118.90000
    956.73,  2601.90000,  7054.50000
    957.18,  2605.00000,  6963.40000
    957.62,  2598.80000,  6871.70000
    958.07,  2609.80000,  6759.10000
    958.52,  2599.50000,  6637.60000
    958.97,  2587.70000,  6499.10000
    959.42,  2587.60000,  6309.30000
    959.87,  2578.70000,  6101.80000
    960.32,  2582.50000,  5884.10000
    960.77,  2609.40000,  5686.90000
    961.22,  2648.40000,  5484.50000
    961.67,  2671.50000,  5302.90000
    962.12,  2650.50000,  5156.40000
    962.57,  2617.40000,  5015.10000
    963.02,  2611.50000,  4894.00000
    963.47,  2597.90000,  4771.30000
    963.92,  2618.20000,  4646.50000
    964.36,  2619.90000,  4556.60000
    964.81,  2610.00000,  4482.50000
    965.26,  2613.40000,  4403.60000
    965.71,  2616.80000,  4351.10000
    966.16,  2611.30000,  4291.70000
    966.61,  2599.40000,  4221.60000
    967.06,  2585.10000,  4160.90000
    967.51,  2601.50000,  4061.90000
    967.96,  2613.00000,  3931.70000
    968.41,  2623.10000,  3782.40000
    968.85,  2626.10000,  3647.40000
    969.30,  2614.80000,  3513.80000
    969.75,  2620.70000,  3385.90000
    970.20,  2613.60000,  3250.40000
    970.65,  2619.40000,  3097.30000
    971.10,  2613.00000,  2948.40000
    971.55,  2613.80000,  2838.90000
    972.00,  2603.30000,  2759.80000
    972.44,  2588.50000,  2688.20000
    972.89,  2597.90000,  2619.10000
    973.34,  2619.20000,  2533.50000
    973.79,  2619.70000,  2460.80000
    974.24,  2631.40000,  2381.90000
    974.69,  2610.10000,  2329.10000
    975.14,  2574.20000,  2290.60000
    975.59,  2581.70000,  2264.50000
    976.03,  2568.20000,  2248.90000
    976.48,  2562.70000,  2232.70000
    976.93,  2567.00000,  2202.50000
    977.38,  2563.20000,  2198.50000
    977.83,  2555.90000,  2206.20000
    978.28,  2573.20000,  2219.30000
    978.72,  2579.40000,  2257.60000
    979.17,  2591.80000,  2274.80000
    979.62,  2601.50000,  2285.80000
    980.07,  2603.50000,  2279.10000
    980.52,  2597.20000,  2262.10000
    980.97,  2580.70000,  2239.20000
    981.41,  2545.30000,  2233.20000
    981.86,  2532.20000,  2212.90000
    982.31,  2553.10000,  2201.30000
    982.76,  2573.60000,  2170.80000
    983.21,  2610.30000,  2125.40000
    983.66,  2610.30000,  2064.00000
    984.10,  2579.20000,  1995.70000
    984.55,  2562.40000,  1919.30000
    985.00,  2554.30000,  1864.00000
    985.45,  2538.40000,  1807.80000
    985.90,  2550.90000,  1755.50000
    986.34,  2566.60000,  1691.30000
    986.79,  2557.10000,  1637.00000
    987.24,  2557.80000,  1593.30000
    987.69,  2539.00000,  1562.60000
    988.14,  2538.60000,  1520.50000
    988.58,  2551.40000,  1477.70000
    989.03,  2573.90000,  1414.30000
    989.48,  2576.40000,  1365.90000
    989.93,  2576.80000,  1319.40000
    990.38,  2555.40000,  1286.90000
    990.82,  2552.30000,  1277.50000
    991.27,  2569.10000,  1257.90000
    991.72,  2593.30000,  1237.20000
    992.17,  2579.70000,  1217.60000
    992.61,  2592.40000,  1185.00000
    993.06,  2567.10000,  1161.70000
    993.51,  2582.10000,  1152.80000
    993.96,  2587.00000,  1130.30000
    994.41,  2577.10000,  1110.50000
    994.85,  2560.10000,  1085.30000
    995.30,  2578.60000,  1060.30000
    995.75,  2574.40000,  1042.70000
    996.20,  2615.00000,  1026.30000
    996.64,  2599.40000,  1011.10000
    997.09,  2563.90000,   997.50000
    997.54,  2558.30000,   975.70000
    997.99,  2548.10000,   961.00000
    998.43,  2549.40000,   944.70000
    998.88,  2546.40000,   945.20000
    999.33,  2543.60000,   942.80000
    999.77,  2561.30000,   944.50000
   1000.22,  2583.00000,   933.60000
   1000.67,  2599.60000,   924.70000
   1001.12,  2614.60000,   904.10000
   1001.56,  2584.30000,   900.50000
   1002.01,  2566.90000,   900.80000
   1002.46,  2578.40000,   902.30000
   1002.91,  2556.40000,   903.70000
   1003.35,  2570.10000,   906.50000
   1003.80,  2562.30000,   897.20000
   1004.25,  2560.30000,   892.40000
   1004.69,  2561.70000,   888.10000
   1005.14,  2553.20000,   883.60000
   1005.59,  2558.80000,   878.80000
   1006.04,  2591.80000,   881.40000
   1006.48,  2605.80000,   880.10000
   1006.93,  2632.70000,   881.80000
   1007.38,  2618.60000,   881.70000
   1007.82,  2574.00000,   884.90000
   1008.27,  2547.30000,   889.40000
   1008.72,  2532.90000,   891.20000
   1009.16,  2530.20000,   892.50000
   1009.61,  2546.70000,   889.50000
   1010.06,  2546.00000,   892.10000
   1010.50,  2575.00000,   896.30000
   1010.95,  2597.60000,   899.70000
   1011.40,  2604.00000,   900.00000
   1011.85,  2578.80000,   905.10000
   1012.29,  2575.20000,   895.00000
   1012.74,  2558.90000,   879.30000
   1013.19,  2564.00000,   871.70000
   1013.63,  2608.40000,   867.00000
   1014.08,  2627.90000,   876.90000
   1014.53,  2613.10000,   890.80000
   1014.97,  2590.20000,   897.60000
   1015.42,  2556.80000,   904.60000
   1015.86,  2519.30000,   901.90000
   1016.31,  2544.10000,   892.70000
   1016.76,  2575.60000,   886.70000
   1017.20,  2571.90000,   878.80000
   1017.65,  2550.80000,   877.40000
   1018.10,  2546.10000,   883.00000
   1018.54,  2532.90000,   877.40000
   1018.99,  2555.60000,   882.60000
   1019.44,  2562.00000,   893.50000
   1019.88,  2555.90000,   896.40000
   1020.33,  2551.40000,   895.70000
   1020.78,  2561.20000,   885.60000
   1021.22,  2574.40000,   876.20000
   1021.67,  2576.30000,   878.30000
   1022.11,  2566.80000,   883.50000
   1022.56,  2570.10000,   880.30000
   1023.01,  2557.90000,   875.00000
   1023.45,  2537.40000,   874.80000
   1023.90,  2537.90000,   875.50000
   1024.34,  2519.50000,   879.10000
   1024.79,  2526.80000,   879.10000
   1025.24,  2550.50000,   881.50000
   1025.68,  2544.50000,   883.40000
   1026.13,  2540.90000,   895.40000
   1026.58,  2546.30000,   900.40000
   1027.02,  2562.90000,   892.60000
   1027.47,  2571.30000,   889.10000
   1027.91,  2574.10000,   884.80000
   1028.36,  2545.40000,   884.80000
   1028.80,  2533.30000,   889.70000
   1029.25,  2513.70000,   891.40000
   1029.70,  2523.60000,   881.10000
   1030.14,  2522.10000,   882.80000
   1030.59,  2523.90000,   875.70000
   1031.03,  2524.50000,   879.70000
   1031.48,  2540.50000,   885.20000
   1031.93,  2561.90000,   894.10000
   1032.37,  2584.70000,   896.50000
   1032.82,  2580.00000,   899.70000
   1033.26,  2586.40000,   900.80000
   1033.71,  2565.30000,   903.30000
   1034.15,  2561.20000,   896.80000
   1034.60,  2557.90000,   894.00000
   1035.05,  2566.60000,   889.80000
   1035.49,  2549.80000,   882.20000
   1035.94,  2552.00000,   882.30000
   1036.38,  2517.70000,   886.20000
   1036.83,  2497.40000,   886.30000
   1037.27,  2483.50000,   890.70000
   1037.72,  2488.40000,   892.60000
   1038.16,  2594.80000,   892.60000
   1038.61,  2674.00000,   889.90000
   1039.05,  2682.00000,   887.00000
   1039.50,  2661.10000,   888.80000
   1039.95,  2601.80000,   883.80000
   1040.39,  2532.80000,   880.60000
   1040.84,  2544.50000,   886.40000
   1041.28,  2545.40000,   891.60000
   1041.73,  2539.40000,   898.30000
   1042.17,  2543.70000,   902.30000
   1042.62,  2542.80000,   903.60000
   1043.06,  2557.30000,   904.80000
   1043.51,  2537.10000,   900.20000
   1043.95,  2547.20000,   902.20000
   1044.40,  2544.90000,   905.80000
   1044.84,  2528.10000,   905.20000
   1045.29,  2513.90000,   916.70000
   1045.73,  2521.80000,   922.50000
   1046.18,  2509.90000,   906.90000
   1046.62,  2513.90000,   901.10000
   1047.07,  2513.80000,   893.90000
   1047.51,  2500.00000,   890.80000
   1047.96,  2532.00000,   895.90000
   1048.40,  2574.60000,   908.90000
   1048.85,  2590.60000,   902.50000
   1049.29,  2579.40000,   905.50000
   1049.74,  2534.20000,   906.40000
   1050.18,  2497.90000,   896.40000
   1050.63,  2500.70000,   904.70000
   1051.07,  2509.70000,   919.70000
   1051.52,  2528.70000,   919.20000
   1051.96,  2522.80000,   917.10000
   1052.41,  2511.40000,   908.10000
   1052.85,  2512.60000,   907.80000
   1053.30,  2497.50000,   921.30000
   1053.74,  2490.70000,   930.10000
   1054.18,  2493.10000,   938.10000
   1054.63,  2476.90000,   932.80000
   1055.07,  2476.40000,   928.20000
   1055.52,  2472.30000,   935.60000
   1055.96,  2467.30000,   932.70000
   1056.41,  2463.10000,   928.80000
   1056.85,  2452.90000,   938.90000
   1057.30,  2458.10000,   931.80000
   1057.74,  2462.90000,   925.60000
   1058.18,  2462.10000,   923.90000
   1058.63,  2437.90000,   928.50000
   1059.07,  2434.80000,   929.50000
   1059.52,  2440.00000,   935.60000
   1059.96,  2442.60000,   938.40000
   1060.41,  2444.40000,   934.50000
   1060.85,  2452.20000,   944.30000
   1061.30,  2435.00000,   957.70000
   1061.74,  2432.00000,   960.20000
   1062.18,  2433.00000,   957.00000
   1062.63,  2412.80000,   952.00000
   1063.07,  2414.50000,   941.40000
   1063.52,  2418.50000,   942.40000
   1063.96,  2434.90000,   949.30000
   1064.40,  2431.90000,   952.90000
   1064.85,  2423.70000,   957.90000
   1065.29,  2404.60000,   956.40000
   1065.74,  2394.40000,   953.50000
   1066.18,  2367.10000,   954.00000
