*RAS_DATA_START
*RAS_HEADER_START
*DISP_FMT_X "%.2f"
*DISP_FMT_Y "%.0f"
*DISP_FULLSCALE "14312.0000000000"
*DISP_LINE_COLOR "255.0000000000"
*DISP_LINE_STYLE "0.0000000000"
*DISP_LINE_WIDTH "0.2500000000"
*DISP_NOTE "測定データ-6"
*DISP_OFFSET_Y "0.0000000000"
*DISP_PEAKSEARCH_UNIT_Y "cps"
*DISP_RANGE_BOTTOM "0.0000000000"
*DISP_RANGE_LEFT "20.0000000000"
*DISP_RANGE_LOGCUTOFF "0.0100000000"
*DISP_RANGE_RIGHT "70.0000000000"
*DISP_RANGE_TOP "14312.0000000000"
*DISP_SCALE_MODE_Y "0.0000000000"
*DISP_TAB_NAME "2θ/θ"
*DISP_TITLE_Y "強度"
*DISP_UNIT_Y "cps"
*DISP_WINDOW_NAME "MSG_MACROENGINE"
*FILE_COMMENT " "
*FILE_MD5 ""
*FILE_MEMO " "
*FILE_OPERATOR "Administrator"
*FILE_SAMPLE " "
*FILE_TYPE "RAS_RAW"
*FILE_USERGROUP "システムマネージャ"
*FILE_VERSION "1.0000000000"
*HW_ATTACHMENT_ID "ATT0025"
*HW_ATTACHMENT_NAME "標準|Standard"
*HW_COUNTER_ID-0 "CUT0025"
*HW_COUNTER_ID-1 "CUT0020"
*HW_COUNTER_ID-2 "CUT0020"
*HW_COUNTER_ID-3 "CSL0021"
*HW_COUNTER_ID-4 "CMC0021"
*HW_COUNTER_NAME-0 "D/teX Ultra|D/teX Ultra"
*HW_COUNTER_NAME-1 "None|None"
*HW_COUNTER_NAME-2 "None|None"
*HW_COUNTER_NAME-3 "BBM|BBM"
*HW_COUNTER_NAME-4 "検出器モノクロメータ|Detector monochromator"
*HW_COUNTER_SELECT_NAME "D/teX Ultra|D/teX Ultra"
*HW_GONIOMETER_ID "GON0023"
*HW_GONIOMETER_NAME "SmartLab|SmartLab"
*HW_GONIOMETER_RADIUS-0 "90.0"
*HW_GONIOMETER_RADIUS-1 "114.0"
*HW_GONIOMETER_RADIUS-2 "190.0"
*HW_GONIOMETER_RADIUS-3 "300.0"
*HW_GONIOMETER_RADIUS-4 "187.0"
*HW_GONIOMETER_RADIUS-5 "300.0"
*HW_GONIOMETER_RADIUS-6 "113.0"
*HW_GONIOMETER_RADIUS-7 "331.0"
*HW_I_OPT_ID-0 "CBO0021"
*HW_I_OPT_ID-1 "ICR0023"
*HW_I_OPT_ID-2 "ISL0021"
*HW_I_OPT_ID-3 "ISO0021"
*HW_I_OPT_ID-4 "IAD0021"
*HW_I_OPT_ID-5 "IPR0001"
*HW_I_OPT_NAME-0 "CBOユニット|CBO unit"
*HW_I_OPT_NAME-1 "標準入射光学ユニット|Standard incident optical unit"
*HW_I_OPT_NAME-2 "標準入射スリットボックス|Standard incident slit box"
*HW_I_OPT_NAME-3 "入射平行スリット|Incident parallel slit"
*HW_I_OPT_NAME-4 "長手制限スリット|Length limiting slit"
*HW_I_OPT_NAME-5 "None|None"
*HW_R_ATTENUATER_AUTOMODE "0"
*HW_R_OPT_ID-0 "RSS0021"
*HW_R_OPT_ID-1 "RCR0023"
*HW_R_OPT_ID-2 "RSO0021"
*HW_R_OPT_ID-3 "RRS0021"
*HW_R_OPT_ID-4 "ATN0021"
*HW_R_OPT_ID-5 "RFL0021"
*HW_R_OPT_ID-6 "RAD0021"
*HW_R_OPT_NAME-0 "標準受光スリットボックス1|Standard receiving slit box # 1"
*HW_R_OPT_NAME-1 "標準受光光学ユニット1|Standard receiving unit # 1"
*HW_R_OPT_NAME-2 "標準受光光学ユニット2|Standard receiving optical unit # 2"
*HW_R_OPT_NAME-3 "標準受光スリットボックス2|Standard receiving slit box # 2"
*HW_R_OPT_NAME-4 "標準アッテネータ|Standard Attenuator"
*HW_R_OPT_NAME-5 "Cu Kβ|Cu K-beta"
*HW_R_OPT_NAME-6 "調整用受光スリット|Alignment receiving slit"
*HW_SAMPLE_HOLDER_ID "SMP0023"
*HW_SAMPLE_HOLDER_NAME "標準Zステージ|Standard Z stage"
*HW_XG_CURRENT_MAX "50"
*HW_XG_CURRENT_MIN "2"
*HW_XG_CURRENT_RESOLUTION "1"
*HW_XG_CURRENT_UNIT "mA"
*HW_XG_FOCUS "1mm x 10mm"
*HW_XG_FOCUS_TYPE "Normal"
*HW_XG_ID ""
*HW_XG_NAME "3kW 封入管(ID:1200)|3kW Sealed tube(ID:1200)"
*HW_XG_TARGET_ATOMIC_NUMBER "29.0000000000"
*HW_XG_TARGET_NAME "Cu"
*HW_XG_TYPE "Hermetic"
*HW_XG_VOLTAGE_MAX "60"
*HW_XG_VOLTAGE_MIN "20"
*HW_XG_VOLTAGE_RESOLUTION "1"
*HW_XG_VOLTAGE_UNIT "kV"
*HW_XG_WATT_MAX "1.500"
*HW_XG_WATT_UNIT "kW"
*HW_XG_WAVE_LENGTH_ALPHA1 "1.540593"
*HW_XG_WAVE_LENGTH_ALPHA2 "1.544414"
*HW_XG_WAVE_LENGTH_BETA "1.392250"
*MEAS_COND_AXIS_NAME-0 "2θ/θ"
*MEAS_COND_AXIS_NAME-1 "2θ"
*MEAS_COND_AXIS_NAME-2 "ω"
*MEAS_COND_AXIS_NAME-3 "Z"
*MEAS_COND_AXIS_NAME-4 "2θ/ω"
*MEAS_COND_AXIS_NAME-5 "θs"
*MEAS_COND_AXIS_NAME-6 "θd"
*MEAS_COND_AXIS_NAME-7 "Ts"
*MEAS_COND_AXIS_NAME-8 "CBO選択スリット"
*MEAS_COND_AXIS_NAME-9 "M"
*MEAS_COND_AXIS_NAME-10 "入射平行スリット"
*MEAS_COND_AXIS_NAME-11 "入射スリット"
*MEAS_COND_AXIS_NAME-12 ""
*MEAS_COND_AXIS_NAME-13 "Zs"
*MEAS_COND_AXIS_NAME-14 "入射光学素子"
*MEAS_COND_AXIS_NAME-15 "長手制限スリット"
*MEAS_COND_AXIS_NAME-16 "センタースリット"
*MEAS_COND_AXIS_NAME-17 "フィルター"
*MEAS_COND_AXIS_NAME-18 "受光スリット1"
*MEAS_COND_AXIS_NAME-19 "受光スリット2"
*MEAS_COND_AXIS_NAME-20 "受光光学素子"
*MEAS_COND_AXIS_NAME-21 "受光平行スリット"
*MEAS_COND_AXIS_NAME-22 "調整用受光スリット"
*MEAS_COND_AXIS_NAME-23 ""
*MEAS_COND_AXIS_NAME-24 ""
*MEAS_COND_AXIS_NAME-25 "Zd"
*MEAS_COND_AXIS_NAME-26 "アッテネータ"
*MEAS_COND_AXIS_NAME-27 "検出器モノクロメータ"
*MEAS_COND_AXIS_NAME-28 "モノクロメータスリット"
*MEAS_COND_AXIS_NAME-29 "プライマリビーム"
*MEAS_COND_AXIS_NAME-30 "PHA"
*MEAS_COND_AXIS_NAME_INTERNAL-0 "TwoThetaTheta"
*MEAS_COND_AXIS_NAME_INTERNAL-1 "TwoTheta"
*MEAS_COND_AXIS_NAME_INTERNAL-2 "Omega"
*MEAS_COND_AXIS_NAME_INTERNAL-3 "Z"
*MEAS_COND_AXIS_NAME_INTERNAL-4 "TwoThetaOmega"
*MEAS_COND_AXIS_NAME_INTERNAL-5 "ThetaS"
*MEAS_COND_AXIS_NAME_INTERNAL-6 "ThetaD"
*MEAS_COND_AXIS_NAME_INTERNAL-7 "Ts"
*MEAS_COND_AXIS_NAME_INTERNAL-8 "CBO"
*MEAS_COND_AXIS_NAME_INTERNAL-9 "CBO-M"
*MEAS_COND_AXIS_NAME_INTERNAL-10 "IncidentSollerSlit"
*MEAS_COND_AXIS_NAME_INTERNAL-11 "IncidentSlitBox"
*MEAS_COND_AXIS_NAME_INTERNAL-12 "IncidentSlitBox-_Axis"
*MEAS_COND_AXIS_NAME_INTERNAL-13 "Zs"
*MEAS_COND_AXIS_NAME_INTERNAL-14 "IncidentMonochromator"
*MEAS_COND_AXIS_NAME_INTERNAL-15 "IncidentAxdSlit"
*MEAS_COND_AXIS_NAME_INTERNAL-16 "CenterSlit"
*MEAS_COND_AXIS_NAME_INTERNAL-17 "Filter"
*MEAS_COND_AXIS_NAME_INTERNAL-18 "ReceivingSlitBox1"
*MEAS_COND_AXIS_NAME_INTERNAL-19 "ReceivingSlitBox2"
*MEAS_COND_AXIS_NAME_INTERNAL-20 "ReceivingOptics"
*MEAS_COND_AXIS_NAME_INTERNAL-21 "ReceivingSollerSlit"
*MEAS_COND_AXIS_NAME_INTERNAL-22 "ReceivingAxdSlit"
*MEAS_COND_AXIS_NAME_INTERNAL-23 "ReceivingSlitBox1-_Axis"
*MEAS_COND_AXIS_NAME_INTERNAL-24 "ReceivingSlitBox2-_Axis"
*MEAS_COND_AXIS_NAME_INTERNAL-25 "ReceivingSlitBox2-Zd"
*MEAS_COND_AXIS_NAME_INTERNAL-26 "Attenuator"
*MEAS_COND_AXIS_NAME_INTERNAL-27 "CounterMonochromator"
*MEAS_COND_AXIS_NAME_INTERNAL-28 "CounterSlit"
*MEAS_COND_AXIS_NAME_INTERNAL-29 "IncidentPrimary"
*MEAS_COND_AXIS_NAME_INTERNAL-30 "PHA"
*MEAS_COND_AXIS_NAME_MAGICNO-0 "83951616.0000000000"
*MEAS_COND_AXIS_NAME_MAGICNO-1 "268632064.0000000000"
*MEAS_COND_AXIS_NAME_MAGICNO-2 "268500992.0000000000"
*MEAS_COND_AXIS_NAME_MAGICNO-3 "285278208.0000000000"
*MEAS_COND_AXIS_NAME_MAGICNO-4 "83951616.0000000000"
*MEAS_COND_AXIS_NAME_MAGICNO-5 "131072.0000000000"
*MEAS_COND_AXIS_NAME_MAGICNO-6 "131072.0000000000"
*MEAS_COND_AXIS_NAME_MAGICNO-7 "318898176.0000000000"
*MEAS_COND_AXIS_NAME_MAGICNO-8 "20971521.0000000000"
*MEAS_COND_AXIS_NAME_MAGICNO-9 "285343744.0000000000"
*MEAS_COND_AXIS_NAME_MAGICNO-10 "20971521.0000000000"
*MEAS_COND_AXIS_NAME_MAGICNO-11 "22020097.0000000000"
*MEAS_COND_AXIS_NAME_MAGICNO-12 "25165824.0000000000"
*MEAS_COND_AXIS_NAME_MAGICNO-13 "318898176.0000000000"
*MEAS_COND_AXIS_NAME_MAGICNO-14 "1.0000000000"
*MEAS_COND_AXIS_NAME_MAGICNO-15 "20971521.0000000000"
*MEAS_COND_AXIS_NAME_MAGICNO-16 "20971521.0000000000"
*MEAS_COND_AXIS_NAME_MAGICNO-17 "20971521.0000000000"
*MEAS_COND_AXIS_NAME_MAGICNO-18 "23068673.0000000000"
*MEAS_COND_AXIS_NAME_MAGICNO-19 "23068673.0000000000"
*MEAS_COND_AXIS_NAME_MAGICNO-20 "20971521.0000000000"
*MEAS_COND_AXIS_NAME_MAGICNO-21 "20971521.0000000000"
*MEAS_COND_AXIS_NAME_MAGICNO-22 "20971521.0000000000"
*MEAS_COND_AXIS_NAME_MAGICNO-23 "25165824.0000000000"
*MEAS_COND_AXIS_NAME_MAGICNO-24 "25165824.0000000000"
*MEAS_COND_AXIS_NAME_MAGICNO-25 "285343744.0000000000"
*MEAS_COND_AXIS_NAME_MAGICNO-26 "17301505.0000000000"
*MEAS_COND_AXIS_NAME_MAGICNO-27 "20971521.0000000000"
*MEAS_COND_AXIS_NAME_MAGICNO-28 "20971521.0000000000"
*MEAS_COND_AXIS_NAME_MAGICNO-29 "20971521.0000000000"
*MEAS_COND_AXIS_NAME_MAGICNO-30 "0.0000000000"
*MEAS_COND_AXIS_OFFSET-0 "-"
*MEAS_COND_AXIS_OFFSET-1 "-0.1081000000"
*MEAS_COND_AXIS_OFFSET-2 "0.3758000000"
*MEAS_COND_AXIS_OFFSET-3 "-"
*MEAS_COND_AXIS_OFFSET-4 "-"
*MEAS_COND_AXIS_OFFSET-5 "0.3758000000"
*MEAS_COND_AXIS_OFFSET-6 "-0.4839000000"
*MEAS_COND_AXIS_OFFSET-7 "-"
*MEAS_COND_AXIS_OFFSET-8 "-"
*MEAS_COND_AXIS_OFFSET-9 "-"
*MEAS_COND_AXIS_OFFSET-10 "-"
*MEAS_COND_AXIS_OFFSET-11 "-"
*MEAS_COND_AXIS_OFFSET-12 "-"
*MEAS_COND_AXIS_OFFSET-13 "-"
*MEAS_COND_AXIS_OFFSET-14 "-"
*MEAS_COND_AXIS_OFFSET-15 "-"
*MEAS_COND_AXIS_OFFSET-16 "-"
*MEAS_COND_AXIS_OFFSET-17 "-"
*MEAS_COND_AXIS_OFFSET-18 "-"
*MEAS_COND_AXIS_OFFSET-19 "-"
*MEAS_COND_AXIS_OFFSET-20 "-"
*MEAS_COND_AXIS_OFFSET-21 "-"
*MEAS_COND_AXIS_OFFSET-22 "-"
*MEAS_COND_AXIS_OFFSET-23 "-"
*MEAS_COND_AXIS_OFFSET-24 "-"
*MEAS_COND_AXIS_OFFSET-25 "-"
*MEAS_COND_AXIS_OFFSET-26 "-"
*MEAS_COND_AXIS_OFFSET-27 "-"
*MEAS_COND_AXIS_OFFSET-28 "-"
*MEAS_COND_AXIS_OFFSET-29 "-"
*MEAS_COND_AXIS_OFFSET-30 "-"
*MEAS_COND_AXIS_POSITION-0 "0.0000000000"
*MEAS_COND_AXIS_POSITION-1 "0.0000000000"
*MEAS_COND_AXIS_POSITION-2 "0.0000000000"
*MEAS_COND_AXIS_POSITION-3 "-0.5500000000"
*MEAS_COND_AXIS_POSITION-4 "0.0000000000"
*MEAS_COND_AXIS_POSITION-5 "0.0000000000"
*MEAS_COND_AXIS_POSITION-6 "0.0000000000"
*MEAS_COND_AXIS_POSITION-7 "-0.4278800000"
*MEAS_COND_AXIS_POSITION-8 "BB"
*MEAS_COND_AXIS_POSITION-9 "0.0000000000"
*MEAS_COND_AXIS_POSITION-10 "Soller_slit_5.0deg"
*MEAS_COND_AXIS_POSITION-11 "2/3deg"
*MEAS_COND_AXIS_POSITION-12 "2.2088000000"
*MEAS_COND_AXIS_POSITION-13 "-0.4140600000"
*MEAS_COND_AXIS_POSITION-14 "0.0000000000"
*MEAS_COND_AXIS_POSITION-15 "10.0mm"
*MEAS_COND_AXIS_POSITION-16 "None"
*MEAS_COND_AXIS_POSITION-17 "Cu_K-beta"
*MEAS_COND_AXIS_POSITION-18 "10.036mm"
*MEAS_COND_AXIS_POSITION-19 "13.000mm"
*MEAS_COND_AXIS_POSITION-20 "No_unit"
*MEAS_COND_AXIS_POSITION-21 "Soller_slit_5.0deg"
*MEAS_COND_AXIS_POSITION-22 "None"
*MEAS_COND_AXIS_POSITION-23 "10.0363000000"
*MEAS_COND_AXIS_POSITION-24 "13.0000000000"
*MEAS_COND_AXIS_POSITION-25 "0.0109400000"
*MEAS_COND_AXIS_POSITION-26 "Open"
*MEAS_COND_AXIS_POSITION-27 "None"
*MEAS_COND_AXIS_POSITION-28 "None"
*MEAS_COND_AXIS_POSITION-29 "None"
*MEAS_COND_AXIS_POSITION-30 "38.0000000000"
*MEAS_COND_AXIS_UNIT-0 "deg"
*MEAS_COND_AXIS_UNIT-1 "deg"
*MEAS_COND_AXIS_UNIT-2 "deg"
*MEAS_COND_AXIS_UNIT-3 "mm"
*MEAS_COND_AXIS_UNIT-4 "deg"
*MEAS_COND_AXIS_UNIT-5 "deg"
*MEAS_COND_AXIS_UNIT-6 "deg"
*MEAS_COND_AXIS_UNIT-7 "mm"
*MEAS_COND_AXIS_UNIT-8 ""
*MEAS_COND_AXIS_UNIT-9 "pulse"
*MEAS_COND_AXIS_UNIT-10 ""
*MEAS_COND_AXIS_UNIT-11 ""
*MEAS_COND_AXIS_UNIT-12 "mm"
*MEAS_COND_AXIS_UNIT-13 "mm"
*MEAS_COND_AXIS_UNIT-14 ""
*MEAS_COND_AXIS_UNIT-15 ""
*MEAS_COND_AXIS_UNIT-16 ""
*MEAS_COND_AXIS_UNIT-17 ""
*MEAS_COND_AXIS_UNIT-18 ""
*MEAS_COND_AXIS_UNIT-19 ""
*MEAS_COND_AXIS_UNIT-20 ""
*MEAS_COND_AXIS_UNIT-21 ""
*MEAS_COND_AXIS_UNIT-22 ""
*MEAS_COND_AXIS_UNIT-23 "mm"
*MEAS_COND_AXIS_UNIT-24 "mm"
*MEAS_COND_AXIS_UNIT-25 "mm"
*MEAS_COND_AXIS_UNIT-26 ""
*MEAS_COND_AXIS_UNIT-27 ""
*MEAS_COND_AXIS_UNIT-28 ""
*MEAS_COND_AXIS_UNIT-29 ""
*MEAS_COND_AXIS_UNIT-30 "div"
*MEAS_COND_COUNTER_CNTLOSS_CORR "0.0000000000"
*MEAS_COND_COUNTER_PHABASE "38.0000000000"
*MEAS_COND_COUNTER_PHAWINDOW "16.0000000000"
*MEAS_COND_COUNTER_PHA_UNIT "div"
*MEAS_COND_COUNTER_TAUDIFF "30.0000000000"
*MEAS_COND_COUNTER_TAUINT "0.0000000000"
*MEAS_COND_IRRADIATION_MODE "OFF"
*MEAS_COND_IRRADIATION_WIDTH ""
*MEAS_COND_OPT_ATTR "集中法"
*MEAS_COND_OPT_NAME "@集中法"
*MEAS_COND_UNSYMMETRIC_MODE "OFF"
*MEAS_COND_XG_CURRENT "30.0000000000"
*MEAS_COND_XG_VOLTAGE "40.0000000000"
*MEAS_COND_XG_WAVE_TYPE "Ka"
*MEAS_DATA_COUNT "5001.0000000000"
*MEAS_SCAN_AXIS_X "2θ/θ"
*MEAS_SCAN_AXIS_X_INTERNAL "TwoThetaTheta"
*MEAS_SCAN_END_TIME "07/15/21 17:50:14"
*MEAS_SCAN_MODE "CONTINUOUS"
*MEAS_SCAN_MONITOR "0"
*MEAS_SCAN_RESOLUTION_X "0.0002"
*MEAS_SCAN_SPEED "1.0"
*MEAS_SCAN_SPEED_UNIT "deg/min"
*MEAS_SCAN_START "20.0000000000"
*MEAS_SCAN_START_TIME "07/15/21 16:57:20"
*MEAS_SCAN_STEP "0.0100000000"
*MEAS_SCAN_STOP "70.0000000000"
*MEAS_SCAN_UNIT_X "deg"
*MEAS_SCAN_UNIT_Y "counts"
*RAS_HEADER_END
*RAS_INT_START
20.0000 1189.0000 1.0000
20.0100 1246.0000 1.0000
20.0200 1192.0000 1.0000
20.0300 1220.0000 1.0000
20.0400 1226.0000 1.0000
20.0500 1214.0000 1.0000
20.0600 1250.0000 1.0000
20.0700 1213.0000 1.0000
20.0800 1221.0000 1.0000
20.0900 1159.0000 1.0000
20.1000 1157.0000 1.0000
20.1100 1161.0000 1.0000
20.1200 1258.0000 1.0000
20.1300 1257.0000 1.0000
20.1400 1284.0000 1.0000
20.1500 1237.0000 1.0000
20.1600 1236.0000 1.0000
20.1700 1206.0000 1.0000
20.1800 1196.0000 1.0000
20.1900 1215.0000 1.0000
20.2000 1253.0000 1.0000
20.2100 1269.0000 1.0000
20.2200 1226.0000 1.0000
20.2300 1234.0000 1.0000
20.2400 1235.0000 1.0000
20.2500 1220.0000 1.0000
20.2600 1232.0000 1.0000
20.2700 1216.0000 1.0000
20.2800 1248.0000 1.0000
20.2900 1227.0000 1.0000
20.3000 1262.0000 1.0000
20.3100 1240.0000 1.0000
20.3200 1269.0000 1.0000
20.3300 1180.0000 1.0000
20.3400 1221.0000 1.0000
20.3500 1168.0000 1.0000
20.3600 1223.0000 1.0000
20.3700 1259.0000 1.0000
20.3800 1243.0000 1.0000
20.3900 1200.0000 1.0000
20.4000 1223.0000 1.0000
20.4100 1267.0000 1.0000
20.4200 1225.0000 1.0000
20.4300 1137.0000 1.0000
20.4400 1212.0000 1.0000
20.4500 1215.0000 1.0000
20.4600 1226.0000 1.0000
20.4700 1243.0000 1.0000
20.4800 1200.0000 1.0000
20.4900 1240.0000 1.0000
20.5000 1245.0000 1.0000
20.5100 1237.0000 1.0000
20.5200 1260.0000 1.0000
20.5300 1188.0000 1.0000
20.5400 1256.0000 1.0000
20.5500 1206.0000 1.0000
20.5600 1171.0000 1.0000
20.5700 1228.0000 1.0000
20.5800 1240.0000 1.0000
20.5900 1220.0000 1.0000
20.6000 1245.0000 1.0000
20.6100 1172.0000 1.0000
20.6200 1250.0000 1.0000
20.6300 1237.0000 1.0000
20.6400 1249.0000 1.0000
20.6500 1189.0000 1.0000
20.6600 1266.0000 1.0000
20.6700 1218.0000 1.0000
20.6800 1223.0000 1.0000
20.6900 1216.0000 1.0000
20.7000 1253.0000 1.0000
20.7100 1209.0000 1.0000
20.7200 1251.0000 1.0000
20.7300 1266.0000 1.0000
20.7400 1210.0000 1.0000
20.7500 1187.0000 1.0000
20.7600 1265.0000 1.0000
20.7700 1270.0000 1.0000
20.7800 1282.0000 1.0000
20.7900 1213.0000 1.0000
20.8000 1205.0000 1.0000
20.8100 1253.0000 1.0000
20.8200 1248.0000 1.0000
20.8300 1189.0000 1.0000
20.8400 1184.0000 1.0000
20.8500 1223.0000 1.0000
20.8600 1233.0000 1.0000
20.8700 1227.0000 1.0000
20.8800 1270.0000 1.0000
20.8900 1312.0000 1.0000
20.9000 1227.0000 1.0000
20.9100 1248.0000 1.0000
20.9200 1267.0000 1.0000
20.9300 1221.0000 1.0000
20.9400 1189.0000 1.0000
20.9500 1237.0000 1.0000
20.9600 1197.0000 1.0000
20.9700 1234.0000 1.0000
20.9800 1224.0000 1.0000
20.9900 1249.0000 1.0000
21.0000 1227.0000 1.0000
21.0100 1221.0000 1.0000
21.0200 1258.0000 1.0000
21.0300 1236.0000 1.0000
21.0400 1221.0000 1.0000
21.0500 1250.0000 1.0000
21.0600 1245.0000 1.0000
21.0700 1217.0000 1.0000
21.0800 1211.0000 1.0000
21.0900 1245.0000 1.0000
21.1000 1260.0000 1.0000
21.1100 1196.0000 1.0000
21.1200 1220.0000 1.0000
21.1300 1212.0000 1.0000
21.1400 1226.0000 1.0000
21.1500 1230.0000 1.0000
21.1600 1205.0000 1.0000
21.1700 1275.0000 1.0000
21.1800 1244.0000 1.0000
21.1900 1274.0000 1.0000
21.2000 1247.0000 1.0000
21.2100 1241.0000 1.0000
21.2200 1264.0000 1.0000
21.2300 1293.0000 1.0000
21.2400 1251.0000 1.0000
21.2500 1227.0000 1.0000
21.2600 1229.0000 1.0000
21.2700 1232.0000 1.0000
21.2800 1253.0000 1.0000
21.2900 1254.0000 1.0000
21.3000 1266.0000 1.0000
21.3100 1234.0000 1.0000
21.3200 1238.0000 1.0000
21.3300 1268.0000 1.0000
21.3400 1213.0000 1.0000
21.3500 1240.0000 1.0000
21.3600 1286.0000 1.0000
21.3700 1242.0000 1.0000
21.3800 1222.0000 1.0000
21.3900 1271.0000 1.0000
21.4000 1279.0000 1.0000
21.4100 1258.0000 1.0000
21.4200 1262.0000 1.0000
21.4300 1284.0000 1.0000
21.4400 1237.0000 1.0000
21.4500 1234.0000 1.0000
21.4600 1279.0000 1.0000
21.4700 1259.0000 1.0000
21.4800 1236.0000 1.0000
21.4900 1271.0000 1.0000
21.5000 1235.0000 1.0000
21.5100 1259.0000 1.0000
21.5200 1255.0000 1.0000
21.5300 1245.0000 1.0000
21.5400 1306.0000 1.0000
21.5500 1255.0000 1.0000
21.5600 1251.0000 1.0000
21.5700 1259.0000 1.0000
21.5800 1199.0000 1.0000
21.5900 1182.0000 1.0000
21.6000 1206.0000 1.0000
21.6100 1250.0000 1.0000
21.6200 1282.0000 1.0000
21.6300 1278.0000 1.0000
21.6400 1289.0000 1.0000
21.6500 1306.0000 1.0000
21.6600 1252.0000 1.0000
21.6700 1245.0000 1.0000
21.6800 1295.0000 1.0000
21.6900 1282.0000 1.0000
21.7000 1274.0000 1.0000
21.7100 1311.0000 1.0000
21.7200 1294.0000 1.0000
21.7300 1206.0000 1.0000
21.7400 1289.0000 1.0000
21.7500 1287.0000 1.0000
21.7600 1253.0000 1.0000
21.7700 1239.0000 1.0000
21.7800 1230.0000 1.0000
21.7900 1218.0000 1.0000
21.8000 1288.0000 1.0000
21.8100 1312.0000 1.0000
21.8200 1325.0000 1.0000
21.8300 1296.0000 1.0000
21.8400 1298.0000 1.0000
21.8500 1298.0000 1.0000
21.8600 1321.0000 1.0000
21.8700 1244.0000 1.0000
21.8800 1227.0000 1.0000
21.8900 1275.0000 1.0000
21.9000 1215.0000 1.0000
21.9100 1284.0000 1.0000
21.9200 1280.0000 1.0000
21.9300 1246.0000 1.0000
21.9400 1247.0000 1.0000
21.9500 1231.0000 1.0000
21.9600 1276.0000 1.0000
21.9700 1205.0000 1.0000
21.9800 1214.0000 1.0000
21.9900 1243.0000 1.0000
22.0000 1234.0000 1.0000
22.0100 1331.0000 1.0000
22.0200 1292.0000 1.0000
22.0300 1309.0000 1.0000
22.0400 1260.0000 1.0000
22.0500 1266.0000 1.0000
22.0600 1260.0000 1.0000
22.0700 1259.0000 1.0000
22.0800 1261.0000 1.0000
22.0900 1277.0000 1.0000
22.1000 1295.0000 1.0000
22.1100 1291.0000 1.0000
22.1200 1298.0000 1.0000
22.1300 1274.0000 1.0000
22.1400 1271.0000 1.0000
22.1500 1287.0000 1.0000
22.1600 1245.0000 1.0000
22.1700 1239.0000 1.0000
22.1800 1255.0000 1.0000
22.1900 1281.0000 1.0000
22.2000 1247.0000 1.0000
22.2100 1278.0000 1.0000
22.2200 1288.0000 1.0000
22.2300 1233.0000 1.0000
22.2400 1249.0000 1.0000
22.2500 1253.0000 1.0000
22.2600 1313.0000 1.0000
22.2700 1273.0000 1.0000
22.2800 1229.0000 1.0000
22.2900 1252.0000 1.0000
22.3000 1258.0000 1.0000
22.3100 1260.0000 1.0000
22.3200 1263.0000 1.0000
22.3300 1201.0000 1.0000
22.3400 1247.0000 1.0000
22.3500 1294.0000 1.0000
22.3600 1272.0000 1.0000
22.3700 1279.0000 1.0000
22.3800 1313.0000 1.0000
22.3900 1308.0000 1.0000
22.4000 1244.0000 1.0000
22.4100 1298.0000 1.0000
22.4200 1330.0000 1.0000
22.4300 1298.0000 1.0000
22.4400 1315.0000 1.0000
22.4500 1283.0000 1.0000
22.4600 1303.0000 1.0000
22.4700 1329.0000 1.0000
22.4800 1348.0000 1.0000
22.4900 1391.0000 1.0000
22.5000 1239.0000 1.0000
22.5100 1262.0000 1.0000
22.5200 1279.0000 1.0000
22.5300 1247.0000 1.0000
22.5400 1325.0000 1.0000
22.5500 1316.0000 1.0000
22.5600 1322.0000 1.0000
22.5700 1283.0000 1.0000
22.5800 1330.0000 1.0000
22.5900 1276.0000 1.0000
22.6000 1331.0000 1.0000
22.6100 1294.0000 1.0000
22.6200 1249.0000 1.0000
22.6300 1289.0000 1.0000
22.6400 1244.0000 1.0000
22.6500 1296.0000 1.0000
22.6600 1294.0000 1.0000
22.6700 1334.0000 1.0000
22.6800 1287.0000 1.0000
22.6900 1266.0000 1.0000
22.7000 1274.0000 1.0000
22.7100 1276.0000 1.0000
22.7200 1305.0000 1.0000
22.7300 1295.0000 1.0000
22.7400 1354.0000 1.0000
22.7500 1299.0000 1.0000
22.7600 1287.0000 1.0000
22.7700 1332.0000 1.0000
22.7800 1342.0000 1.0000
22.7900 1287.0000 1.0000
22.8000 1265.0000 1.0000
22.8100 1263.0000 1.0000
22.8200 1269.0000 1.0000
22.8300 1307.0000 1.0000
22.8400 1343.0000 1.0000
22.8500 1347.0000 1.0000
22.8600 1294.0000 1.0000
22.8700 1307.0000 1.0000
22.8800 1326.0000 1.0000
22.8900 1305.0000 1.0000
22.9000 1321.0000 1.0000
22.9100 1327.0000 1.0000
22.9200 1279.0000 1.0000
22.9300 1332.0000 1.0000
22.9400 1404.0000 1.0000
22.9500 1355.0000 1.0000
22.9600 1331.0000 1.0000
22.9700 1288.0000 1.0000
22.9800 1349.0000 1.0000
22.9900 1317.0000 1.0000
23.0000 1401.0000 1.0000
23.0100 1342.0000 1.0000
23.0200 1323.0000 1.0000
23.0300 1293.0000 1.0000
23.0400 1303.0000 1.0000
23.0500 1284.0000 1.0000
23.0600 1345.0000 1.0000
23.0700 1343.0000 1.0000
23.0800 1329.0000 1.0000
23.0900 1343.0000 1.0000
23.1000 1291.0000 1.0000
23.1100 1321.0000 1.0000
23.1200 1291.0000 1.0000
23.1300 1309.0000 1.0000
23.1400 1308.0000 1.0000
23.1500 1322.0000 1.0000
23.1600 1326.0000 1.0000
23.1700 1335.0000 1.0000
23.1800 1348.0000 1.0000
23.1900 1313.0000 1.0000
23.2000 1313.0000 1.0000
23.2100 1297.0000 1.0000
23.2200 1353.0000 1.0000
23.2300 1306.0000 1.0000
23.2400 1307.0000 1.0000
23.2500 1312.0000 1.0000
23.2600 1301.0000 1.0000
23.2700 1367.0000 1.0000
23.2800 1321.0000 1.0000
23.2900 1341.0000 1.0000
23.3000 1359.0000 1.0000
23.3100 1296.0000 1.0000
23.3200 1335.0000 1.0000
23.3300 1281.0000 1.0000
23.3400 1277.0000 1.0000
23.3500 1304.0000 1.0000
23.3600 1310.0000 1.0000
23.3700 1328.0000 1.0000
23.3800 1315.0000 1.0000
23.3900 1337.0000 1.0000
23.4000 1328.0000 1.0000
23.4100 1295.0000 1.0000
23.4200 1242.0000 1.0000
23.4300 1330.0000 1.0000
23.4400 1339.0000 1.0000
23.4500 1365.0000 1.0000
23.4600 1329.0000 1.0000
23.4700 1371.0000 1.0000
23.4800 1329.0000 1.0000
23.4900 1296.0000 1.0000
23.5000 1271.0000 1.0000
23.5100 1296.0000 1.0000
23.5200 1331.0000 1.0000
23.5300 1393.0000 1.0000
23.5400 1333.0000 1.0000
23.5500 1345.0000 1.0000
23.5600 1364.0000 1.0000
23.5700 1355.0000 1.0000
23.5800 1386.0000 1.0000
23.5900 1341.0000 1.0000
23.6000 1335.0000 1.0000
23.6100 1330.0000 1.0000
23.6200 1300.0000 1.0000
23.6300 1280.0000 1.0000
23.6400 1385.0000 1.0000
23.6500 1319.0000 1.0000
23.6600 1339.0000 1.0000
23.6700 1355.0000 1.0000
23.6800 1399.0000 1.0000
23.6900 1348.0000 1.0000
23.7000 1328.0000 1.0000
23.7100 1337.0000 1.0000
23.7200 1335.0000 1.0000
23.7300 1355.0000 1.0000
23.7400 1300.0000 1.0000
23.7500 1362.0000 1.0000
23.7600 1414.0000 1.0000
23.7700 1345.0000 1.0000
23.7800 1300.0000 1.0000
23.7900 1321.0000 1.0000
23.8000 1313.0000 1.0000
23.8100 1344.0000 1.0000
23.8200 1365.0000 1.0000
23.8300 1381.0000 1.0000
23.8400 1356.0000 1.0000
23.8500 1324.0000 1.0000
23.8600 1359.0000 1.0000
23.8700 1394.0000 1.0000
23.8800 1325.0000 1.0000
23.8900 1396.0000 1.0000
23.9000 1350.0000 1.0000
23.9100 1349.0000 1.0000
23.9200 1272.0000 1.0000
23.9300 1353.0000 1.0000
23.9400 1281.0000 1.0000
23.9500 1298.0000 1.0000
23.9600 1335.0000 1.0000
23.9700 1371.0000 1.0000
23.9800 1342.0000 1.0000
23.9900 1316.0000 1.0000
24.0000 1271.0000 1.0000
24.0100 1291.0000 1.0000
24.0200 1326.0000 1.0000
24.0300 1294.0000 1.0000
24.0400 1353.0000 1.0000
24.0500 1304.0000 1.0000
24.0600 1319.0000 1.0000
24.0700 1324.0000 1.0000
24.0800 1291.0000 1.0000
24.0900 1289.0000 1.0000
24.1000 1278.0000 1.0000
24.1100 1370.0000 1.0000
24.1200 1346.0000 1.0000
24.1300 1298.0000 1.0000
24.1400 1315.0000 1.0000
24.1500 1292.0000 1.0000
24.1600 1401.0000 1.0000
24.1700 1317.0000 1.0000
24.1800 1371.0000 1.0000
24.1900 1344.0000 1.0000
24.2000 1350.0000 1.0000
24.2100 1360.0000 1.0000
24.2200 1344.0000 1.0000
24.2300 1346.0000 1.0000
24.2400 1350.0000 1.0000
24.2500 1344.0000 1.0000
24.2600 1349.0000 1.0000
24.2700 1299.0000 1.0000
24.2800 1318.0000 1.0000
24.2900 1365.0000 1.0000
24.3000 1311.0000 1.0000
24.3100 1354.0000 1.0000
24.3200 1348.0000 1.0000
24.3300 1376.0000 1.0000
24.3400 1368.0000 1.0000
24.3500 1322.0000 1.0000
24.3600 1412.0000 1.0000
24.3700 1301.0000 1.0000
24.3800 1324.0000 1.0000
24.3900 1366.0000 1.0000
24.4000 1360.0000 1.0000
24.4100 1370.0000 1.0000
24.4200 1399.0000 1.0000
24.4300 1427.0000 1.0000
24.4400 1395.0000 1.0000
24.4500 1329.0000 1.0000
24.4600 1340.0000 1.0000
24.4700 1388.0000 1.0000
24.4800 1399.0000 1.0000
24.4900 1406.0000 1.0000
24.5000 1364.0000 1.0000
24.5100 1369.0000 1.0000
24.5200 1393.0000 1.0000
24.5300 1386.0000 1.0000
24.5400 1407.0000 1.0000
24.5500 1373.0000 1.0000
24.5600 1378.0000 1.0000
24.5700 1396.0000 1.0000
24.5800 1411.0000 1.0000
24.5900 1417.0000 1.0000
24.6000 1391.0000 1.0000
24.6100 1365.0000 1.0000
24.6200 1330.0000 1.0000
24.6300 1359.0000 1.0000
24.6400 1395.0000 1.0000
24.6500 1390.0000 1.0000
24.6600 1424.0000 1.0000
24.6700 1353.0000 1.0000
24.6800 1332.0000 1.0000
24.6900 1387.0000 1.0000
24.7000 1465.0000 1.0000
24.7100 1350.0000 1.0000
24.7200 1447.0000 1.0000
24.7300 1387.0000 1.0000
24.7400 1443.0000 1.0000
24.7500 1396.0000 1.0000
24.7600 1376.0000 1.0000
24.7700 1382.0000 1.0000
24.7800 1390.0000 1.0000
24.7900 1447.0000 1.0000
24.8000 1433.0000 1.0000
24.8100 1374.0000 1.0000
24.8200 1448.0000 1.0000
24.8300 1380.0000 1.0000
24.8400 1390.0000 1.0000
24.8500 1385.0000 1.0000
24.8600 1470.0000 1.0000
24.8700 1465.0000 1.0000
24.8800 1413.0000 1.0000
24.8900 1447.0000 1.0000
24.9000 1302.0000 1.0000
24.9100 1398.0000 1.0000
24.9200 1402.0000 1.0000
24.9300 1444.0000 1.0000
24.9400 1402.0000 1.0000
24.9500 1418.0000 1.0000
24.9600 1450.0000 1.0000
24.9700 1438.0000 1.0000
24.9800 1438.0000 1.0000
24.9900 1501.0000 1.0000
25.0000 1432.0000 1.0000
25.0100 1434.0000 1.0000
25.0200 1398.0000 1.0000
25.0300 1392.0000 1.0000
25.0400 1395.0000 1.0000
25.0500 1452.0000 1.0000
25.0600 1377.0000 1.0000
25.0700 1378.0000 1.0000
25.0800 1430.0000 1.0000
25.0900 1395.0000 1.0000
25.1000 1419.0000 1.0000
25.1100 1432.0000 1.0000
25.1200 1480.0000 1.0000
25.1300 1411.0000 1.0000
25.1400 1420.0000 1.0000
25.1500 1402.0000 1.0000
25.1600 1459.0000 1.0000
25.1700 1414.0000 1.0000
25.1800 1425.0000 1.0000
25.1900 1411.0000 1.0000
25.2000 1443.0000 1.0000
25.2100 1444.0000 1.0000
25.2200 1403.0000 1.0000
25.2300 1423.0000 1.0000
25.2400 1395.0000 1.0000
25.2500 1420.0000 1.0000
25.2600 1407.0000 1.0000
25.2700 1426.0000 1.0000
25.2800 1425.0000 1.0000
25.2900 1422.0000 1.0000
25.3000 1400.0000 1.0000
25.3100 1436.0000 1.0000
25.3200 1412.0000 1.0000
25.3300 1397.0000 1.0000
25.3400 1434.0000 1.0000
25.3500 1387.0000 1.0000
25.3600 1397.0000 1.0000
25.3700 1419.0000 1.0000
25.3800 1464.0000 1.0000
25.3900 1426.0000 1.0000
25.4000 1420.0000 1.0000
25.4100 1401.0000 1.0000
25.4200 1416.0000 1.0000
25.4300 1438.0000 1.0000
25.4400 1412.0000 1.0000
25.4500 1437.0000 1.0000
25.4600 1426.0000 1.0000
25.4700 1454.0000 1.0000
25.4800 1425.0000 1.0000
25.4900 1392.0000 1.0000
25.5000 1416.0000 1.0000
25.5100 1373.0000 1.0000
25.5200 1432.0000 1.0000
25.5300 1339.0000 1.0000
25.5400 1388.0000 1.0000
25.5500 1419.0000 1.0000
25.5600 1432.0000 1.0000
25.5700 1400.0000 1.0000
25.5800 1441.0000 1.0000
25.5900 1411.0000 1.0000
25.6000 1387.0000 1.0000
25.6100 1405.0000 1.0000
25.6200 1460.0000 1.0000
25.6300 1431.0000 1.0000
25.6400 1351.0000 1.0000
25.6500 1427.0000 1.0000
25.6600 1416.0000 1.0000
25.6700 1413.0000 1.0000
25.6800 1372.0000 1.0000
25.6900 1459.0000 1.0000
25.7000 1419.0000 1.0000
25.7100 1400.0000 1.0000
25.7200 1417.0000 1.0000
25.7300 1386.0000 1.0000
25.7400 1439.0000 1.0000
25.7500 1425.0000 1.0000
25.7600 1385.0000 1.0000
25.7700 1465.0000 1.0000
25.7800 1408.0000 1.0000
25.7900 1419.0000 1.0000
25.8000 1438.0000 1.0000
25.8100 1415.0000 1.0000
25.8200 1424.0000 1.0000
25.8300 1422.0000 1.0000
25.8400 1419.0000 1.0000
25.8500 1416.0000 1.0000
25.8600 1464.0000 1.0000
25.8700 1384.0000 1.0000
25.8800 1474.0000 1.0000
25.8900 1426.0000 1.0000
25.9000 1415.0000 1.0000
25.9100 1439.0000 1.0000
25.9200 1469.0000 1.0000
25.9300 1448.0000 1.0000
25.9400 1469.0000 1.0000
25.9500 1430.0000 1.0000
25.9600 1416.0000 1.0000
25.9700 1440.0000 1.0000
25.9800 1409.0000 1.0000
25.9900 1466.0000 1.0000
26.0000 1448.0000 1.0000
26.0100 1434.0000 1.0000
26.0200 1432.0000 1.0000
26.0300 1427.0000 1.0000
26.0400 1405.0000 1.0000
26.0500 1400.0000 1.0000
26.0600 1445.0000 1.0000
26.0700 1442.0000 1.0000
26.0800 1469.0000 1.0000
26.0900 1481.0000 1.0000
26.1000 1416.0000 1.0000
26.1100 1420.0000 1.0000
26.1200 1398.0000 1.0000
26.1300 1462.0000 1.0000
26.1400 1501.0000 1.0000
26.1500 1447.0000 1.0000
26.1600 1495.0000 1.0000
26.1700 1456.0000 1.0000
26.1800 1450.0000 1.0000
26.1900 1497.0000 1.0000
26.2000 1444.0000 1.0000
26.2100 1459.0000 1.0000
26.2200 1453.0000 1.0000
26.2300 1459.0000 1.0000
26.2400 1453.0000 1.0000
26.2500 1440.0000 1.0000
26.2600 1513.0000 1.0000
26.2700 1462.0000 1.0000
26.2800 1431.0000 1.0000
26.2900 1463.0000 1.0000
26.3000 1498.0000 1.0000
26.3100 1511.0000 1.0000
26.3200 1548.0000 1.0000
26.3300 1468.0000 1.0000
26.3400 1400.0000 1.0000
26.3500 1495.0000 1.0000
26.3600 1427.0000 1.0000
26.3700 1480.0000 1.0000
26.3800 1485.0000 1.0000
26.3900 1464.0000 1.0000
26.4000 1475.0000 1.0000
26.4100 1436.0000 1.0000
26.4200 1458.0000 1.0000
26.4300 1500.0000 1.0000
26.4400 1529.0000 1.0000
26.4500 1556.0000 1.0000
26.4600 1514.0000 1.0000
26.4700 1547.0000 1.0000
26.4800 1541.0000 1.0000
26.4900 1517.0000 1.0000
26.5000 1506.0000 1.0000
26.5100 1541.0000 1.0000
26.5200 1487.0000 1.0000
26.5300 1532.0000 1.0000
26.5400 1523.0000 1.0000
26.5500 1503.0000 1.0000
26.5600 1447.0000 1.0000
26.5700 1476.0000 1.0000
26.5800 1522.0000 1.0000
26.5900 1526.0000 1.0000
26.6000 1503.0000 1.0000
26.6100 1504.0000 1.0000
26.6200 1542.0000 1.0000
26.6300 1572.0000 1.0000
26.6400 1563.0000 1.0000
26.6500 1523.0000 1.0000
26.6600 1508.0000 1.0000
26.6700 1532.0000 1.0000
26.6800 1601.0000 1.0000
26.6900 1505.0000 1.0000
26.7000 1542.0000 1.0000
26.7100 1602.0000 1.0000
26.7200 1578.0000 1.0000
26.7300 1504.0000 1.0000
26.7400 1515.0000 1.0000
26.7500 1621.0000 1.0000
26.7600 1613.0000 1.0000
26.7700 1648.0000 1.0000
26.7800 1681.0000 1.0000
26.7900 1601.0000 1.0000
26.8000 1640.0000 1.0000
26.8100 1709.0000 1.0000
26.8200 1679.0000 1.0000
26.8300 1706.0000 1.0000
26.8400 1665.0000 1.0000
26.8500 1796.0000 1.0000
26.8600 1692.0000 1.0000
26.8700 1699.0000 1.0000
26.8800 1762.0000 1.0000
26.8900 1804.0000 1.0000
26.9000 1809.0000 1.0000
26.9100 1850.0000 1.0000
26.9200 1823.0000 1.0000
26.9300 1826.0000 1.0000
26.9400 1865.0000 1.0000
26.9500 1963.0000 1.0000
26.9600 2018.0000 1.0000
26.9700 2030.0000 1.0000
26.9800 2077.0000 1.0000
26.9900 2071.0000 1.0000
27.0000 2172.0000 1.0000
27.0100 2215.0000 1.0000
27.0200 2194.0000 1.0000
27.0300 2282.0000 1.0000
27.0400 2343.0000 1.0000
27.0500 2532.0000 1.0000
27.0600 2623.0000 1.0000
27.0700 2695.0000 1.0000
27.0800 2769.0000 1.0000
27.0900 2779.0000 1.0000
27.1000 3103.0000 1.0000
27.1100 3189.0000 1.0000
27.1200 3336.0000 1.0000
27.1300 3486.0000 1.0000
27.1400 3624.0000 1.0000
27.1500 3732.0000 1.0000
27.1600 4024.0000 1.0000
27.1700 4360.0000 1.0000
27.1800 4505.0000 1.0000
27.1900 4803.0000 1.0000
27.2000 5116.0000 1.0000
27.2100 5278.0000 1.0000
27.2200 5619.0000 1.0000
27.2300 5764.0000 1.0000
27.2400 5908.0000 1.0000
27.2500 6170.0000 1.0000
27.2600 6300.0000 1.0000
27.2700 6408.0000 1.0000
27.2800 6255.0000 1.0000
27.2900 6247.0000 1.0000
27.3000 6207.0000 1.0000
27.3100 6004.0000 1.0000
27.3200 5873.0000 1.0000
27.3300 5623.0000 1.0000
27.3400 5232.0000 1.0000
27.3500 5015.0000 1.0000
27.3600 4865.0000 1.0000
27.3700 4529.0000 1.0000
27.3800 4277.0000 1.0000
27.3900 4092.0000 1.0000
27.4000 3821.0000 1.0000
27.4100 3596.0000 1.0000
27.4200 3359.0000 1.0000
27.4300 3282.0000 1.0000
27.4400 3034.0000 1.0000
27.4500 2978.0000 1.0000
27.4600 2824.0000 1.0000
27.4700 2731.0000 1.0000
27.4800 2646.0000 1.0000
27.4900 2633.0000 1.0000
27.5000 2422.0000 1.0000
27.5100 2368.0000 1.0000
27.5200 2247.0000 1.0000
27.5300 2311.0000 1.0000
27.5400 2334.0000 1.0000
27.5500 2172.0000 1.0000
27.5600 2062.0000 1.0000
27.5700 2093.0000 1.0000
27.5800 2020.0000 1.0000
27.5900 1952.0000 1.0000
27.6000 2010.0000 1.0000
27.6100 1920.0000 1.0000
27.6200 1860.0000 1.0000
27.6300 1851.0000 1.0000
27.6400 1835.0000 1.0000
27.6500 1834.0000 1.0000
27.6600 1830.0000 1.0000
27.6700 1707.0000 1.0000
27.6800 1724.0000 1.0000
27.6900 1706.0000 1.0000
27.7000 1766.0000 1.0000
27.7100 1640.0000 1.0000
27.7200 1701.0000 1.0000
27.7300 1648.0000 1.0000
27.7400 1607.0000 1.0000
27.7500 1647.0000 1.0000
27.7600 1604.0000 1.0000
27.7700 1614.0000 1.0000
27.7800 1624.0000 1.0000
27.7900 1604.0000 1.0000
27.8000 1616.0000 1.0000
27.8100 1598.0000 1.0000
27.8200 1614.0000 1.0000
27.8300 1558.0000 1.0000
27.8400 1597.0000 1.0000
27.8500 1563.0000 1.0000
27.8600 1533.0000 1.0000
27.8700 1555.0000 1.0000
27.8800 1558.0000 1.0000
27.8900 1523.0000 1.0000
27.9000 1506.0000 1.0000
27.9100 1538.0000 1.0000
27.9200 1497.0000 1.0000
27.9300 1536.0000 1.0000
27.9400 1530.0000 1.0000
27.9500 1557.0000 1.0000
27.9600 1478.0000 1.0000
27.9700 1555.0000 1.0000
27.9800 1484.0000 1.0000
27.9900 1564.0000 1.0000
28.0000 1499.0000 1.0000
28.0100 1537.0000 1.0000
28.0200 1463.0000 1.0000
28.0300 1501.0000 1.0000
28.0400 1501.0000 1.0000
28.0500 1410.0000 1.0000
28.0600 1508.0000 1.0000
28.0700 1523.0000 1.0000
28.0800 1408.0000 1.0000
28.0900 1464.0000 1.0000
28.1000 1438.0000 1.0000
28.1100 1400.0000 1.0000
28.1200 1507.0000 1.0000
28.1300 1434.0000 1.0000
28.1400 1446.0000 1.0000
28.1500 1521.0000 1.0000
28.1600 1471.0000 1.0000
28.1700 1413.0000 1.0000
28.1800 1439.0000 1.0000
28.1900 1502.0000 1.0000
28.2000 1434.0000 1.0000
28.2100 1433.0000 1.0000
28.2200 1347.0000 1.0000
28.2300 1417.0000 1.0000
28.2400 1359.0000 1.0000
28.2500 1410.0000 1.0000
28.2600 1424.0000 1.0000
28.2700 1472.0000 1.0000
28.2800 1382.0000 1.0000
28.2900 1389.0000 1.0000
28.3000 1420.0000 1.0000
28.3100 1437.0000 1.0000
28.3200 1451.0000 1.0000
28.3300 1405.0000 1.0000
28.3400 1427.0000 1.0000
28.3500 1395.0000 1.0000
28.3600 1430.0000 1.0000
28.3700 1394.0000 1.0000
28.3800 1451.0000 1.0000
28.3900 1369.0000 1.0000
28.4000 1366.0000 1.0000
28.4100 1370.0000 1.0000
28.4200 1421.0000 1.0000
28.4300 1402.0000 1.0000
28.4400 1356.0000 1.0000
28.4500 1395.0000 1.0000
28.4600 1365.0000 1.0000
28.4700 1396.0000 1.0000
28.4800 1407.0000 1.0000
28.4900 1424.0000 1.0000
28.5000 1384.0000 1.0000
28.5100 1404.0000 1.0000
28.5200 1387.0000 1.0000
28.5300 1324.0000 1.0000
28.5400 1423.0000 1.0000
28.5500 1346.0000 1.0000
28.5600 1362.0000 1.0000
28.5700 1392.0000 1.0000
28.5800 1374.0000 1.0000
28.5900 1370.0000 1.0000
28.6000 1416.0000 1.0000
28.6100 1426.0000 1.0000
28.6200 1439.0000 1.0000
28.6300 1382.0000 1.0000
28.6400 1431.0000 1.0000
28.6500 1377.0000 1.0000
28.6600 1369.0000 1.0000
28.6700 1407.0000 1.0000
28.6800 1385.0000 1.0000
28.6900 1403.0000 1.0000
28.7000 1363.0000 1.0000
28.7100 1334.0000 1.0000
28.7200 1390.0000 1.0000
28.7300 1394.0000 1.0000
28.7400 1378.0000 1.0000
28.7500 1401.0000 1.0000
28.7600 1384.0000 1.0000
28.7700 1317.0000 1.0000
28.7800 1386.0000 1.0000
28.7900 1380.0000 1.0000
28.8000 1398.0000 1.0000
28.8100 1353.0000 1.0000
28.8200 1368.0000 1.0000
28.8300 1365.0000 1.0000
28.8400 1331.0000 1.0000
28.8500 1332.0000 1.0000
28.8600 1397.0000 1.0000
28.8700 1405.0000 1.0000
28.8800 1350.0000 1.0000
28.8900 1351.0000 1.0000
28.9000 1355.0000 1.0000
28.9100 1343.0000 1.0000
28.9200 1336.0000 1.0000
28.9300 1377.0000 1.0000
28.9400 1365.0000 1.0000
28.9500 1366.0000 1.0000
28.9600 1324.0000 1.0000
28.9700 1376.0000 1.0000
28.9800 1334.0000 1.0000
28.9900 1314.0000 1.0000
29.0000 1426.0000 1.0000
29.0100 1390.0000 1.0000
29.0200 1304.0000 1.0000
29.0300 1311.0000 1.0000
29.0400 1364.0000 1.0000
29.0500 1329.0000 1.0000
29.0600 1404.0000 1.0000
29.0700 1403.0000 1.0000
29.0800 1394.0000 1.0000
29.0900 1368.0000 1.0000
29.1000 1380.0000 1.0000
29.1100 1317.0000 1.0000
29.1200 1353.0000 1.0000
29.1300 1357.0000 1.0000
29.1400 1342.0000 1.0000
29.1500 1306.0000 1.0000
29.1600 1314.0000 1.0000
29.1700 1383.0000 1.0000
29.1800 1314.0000 1.0000
29.1900 1353.0000 1.0000
29.2000 1387.0000 1.0000
29.2100 1307.0000 1.0000
29.2200 1327.0000 1.0000
29.2300 1360.0000 1.0000
29.2400 1309.0000 1.0000
29.2500 1336.0000 1.0000
29.2600 1369.0000 1.0000
29.2700 1326.0000 1.0000
29.2800 1383.0000 1.0000
29.2900 1363.0000 1.0000
29.3000 1245.0000 1.0000
29.3100 1293.0000 1.0000
29.3200 1345.0000 1.0000
29.3300 1316.0000 1.0000
29.3400 1314.0000 1.0000
29.3500 1310.0000 1.0000
29.3600 1334.0000 1.0000
29.3700 1303.0000 1.0000
29.3800 1275.0000 1.0000
29.3900 1366.0000 1.0000
29.4000 1304.0000 1.0000
29.4100 1344.0000 1.0000
29.4200 1384.0000 1.0000
29.4300 1334.0000 1.0000
29.4400 1323.0000 1.0000
29.4500 1312.0000 1.0000
29.4600 1358.0000 1.0000
29.4700 1330.0000 1.0000
29.4800 1368.0000 1.0000
29.4900 1347.0000 1.0000
29.5000 1272.0000 1.0000
29.5100 1293.0000 1.0000
29.5200 1344.0000 1.0000
29.5300 1337.0000 1.0000
29.5400 1286.0000 1.0000
29.5500 1291.0000 1.0000
29.5600 1264.0000 1.0000
29.5700 1312.0000 1.0000
29.5800 1337.0000 1.0000
29.5900 1290.0000 1.0000
29.6000 1328.0000 1.0000
29.6100 1328.0000 1.0000
29.6200 1337.0000 1.0000
29.6300 1328.0000 1.0000
29.6400 1303.0000 1.0000
29.6500 1312.0000 1.0000
29.6600 1352.0000 1.0000
29.6700 1282.0000 1.0000
29.6800 1265.0000 1.0000
29.6900 1361.0000 1.0000
29.7000 1275.0000 1.0000
29.7100 1309.0000 1.0000
29.7200 1263.0000 1.0000
29.7300 1242.0000 1.0000
29.7400 1274.0000 1.0000
29.7500 1312.0000 1.0000
29.7600 1228.0000 1.0000
29.7700 1252.0000 1.0000
29.7800 1282.0000 1.0000
29.7900 1313.0000 1.0000
29.8000 1309.0000 1.0000
29.8100 1319.0000 1.0000
29.8200 1310.0000 1.0000
29.8300 1308.0000 1.0000
29.8400 1252.0000 1.0000
29.8500 1330.0000 1.0000
29.8600 1308.0000 1.0000
29.8700 1274.0000 1.0000
29.8800 1300.0000 1.0000
29.8900 1282.0000 1.0000
29.9000 1296.0000 1.0000
29.9100 1336.0000 1.0000
29.9200 1281.0000 1.0000
29.9300 1294.0000 1.0000
29.9400 1339.0000 1.0000
29.9500 1232.0000 1.0000
29.9600 1255.0000 1.0000
29.9700 1266.0000 1.0000
29.9800 1278.0000 1.0000
29.9900 1304.0000 1.0000
30.0000 1333.0000 1.0000
30.0100 1359.0000 1.0000
30.0200 1341.0000 1.0000
30.0300 1341.0000 1.0000
30.0400 1270.0000 1.0000
30.0500 1278.0000 1.0000
30.0600 1262.0000 1.0000
30.0700 1228.0000 1.0000
30.0800 1276.0000 1.0000
30.0900 1196.0000 1.0000
30.1000 1208.0000 1.0000
30.1100 1278.0000 1.0000
30.1200 1312.0000 1.0000
30.1300 1294.0000 1.0000
30.1400 1253.0000 1.0000
30.1500 1320.0000 1.0000
30.1600 1288.0000 1.0000
30.1700 1268.0000 1.0000
30.1800 1231.0000 1.0000
30.1900 1254.0000 1.0000
30.2000 1285.0000 1.0000
30.2100 1272.0000 1.0000
30.2200 1266.0000 1.0000
30.2300 1292.0000 1.0000
30.2400 1212.0000 1.0000
30.2500 1302.0000 1.0000
30.2600 1283.0000 1.0000
30.2700 1276.0000 1.0000
30.2800 1302.0000 1.0000
30.2900 1224.0000 1.0000
30.3000 1243.0000 1.0000
30.3100 1261.0000 1.0000
30.3200 1245.0000 1.0000
30.3300 1198.0000 1.0000
30.3400 1282.0000 1.0000
30.3500 1234.0000 1.0000
30.3600 1280.0000 1.0000
30.3700 1241.0000 1.0000
30.3800 1258.0000 1.0000
30.3900 1280.0000 1.0000
30.4000 1200.0000 1.0000
30.4100 1218.0000 1.0000
30.4200 1255.0000 1.0000
30.4300 1279.0000 1.0000
30.4400 1215.0000 1.0000
30.4500 1229.0000 1.0000
30.4600 1244.0000 1.0000
30.4700 1235.0000 1.0000
30.4800 1258.0000 1.0000
30.4900 1238.0000 1.0000
30.5000 1226.0000 1.0000
30.5100 1271.0000 1.0000
30.5200 1273.0000 1.0000
30.5300 1279.0000 1.0000
30.5400 1293.0000 1.0000
30.5500 1250.0000 1.0000
30.5600 1266.0000 1.0000
30.5700 1279.0000 1.0000
30.5800 1305.0000 1.0000
30.5900 1229.0000 1.0000
30.6000 1270.0000 1.0000
30.6100 1213.0000 1.0000
30.6200 1286.0000 1.0000
30.6300 1257.0000 1.0000
30.6400 1238.0000 1.0000
30.6500 1250.0000 1.0000
30.6600 1224.0000 1.0000
30.6700 1237.0000 1.0000
30.6800 1232.0000 1.0000
30.6900 1244.0000 1.0000
30.7000 1253.0000 1.0000
30.7100 1246.0000 1.0000
30.7200 1265.0000 1.0000
30.7300 1257.0000 1.0000
30.7400 1246.0000 1.0000
30.7500 1256.0000 1.0000
30.7600 1254.0000 1.0000
30.7700 1234.0000 1.0000
30.7800 1291.0000 1.0000
30.7900 1223.0000 1.0000
30.8000 1262.0000 1.0000
30.8100 1218.0000 1.0000
30.8200 1278.0000 1.0000
30.8300 1248.0000 1.0000
30.8400 1254.0000 1.0000
30.8500 1235.0000 1.0000
30.8600 1228.0000 1.0000
30.8700 1258.0000 1.0000
30.8800 1238.0000 1.0000
30.8900 1218.0000 1.0000
30.9000 1222.0000 1.0000
30.9100 1195.0000 1.0000
30.9200 1189.0000 1.0000
30.9300 1233.0000 1.0000
30.9400 1205.0000 1.0000
30.9500 1246.0000 1.0000
30.9600 1242.0000 1.0000
30.9700 1264.0000 1.0000
30.9800 1267.0000 1.0000
30.9900 1273.0000 1.0000
31.0000 1268.0000 1.0000
31.0100 1211.0000 1.0000
31.0200 1210.0000 1.0000
31.0300 1249.0000 1.0000
31.0400 1264.0000 1.0000
31.0500 1278.0000 1.0000
31.0600 1272.0000 1.0000
31.0700 1234.0000 1.0000
31.0800 1239.0000 1.0000
31.0900 1232.0000 1.0000
31.1000 1250.0000 1.0000
31.1100 1236.0000 1.0000
31.1200 1245.0000 1.0000
31.1300 1262.0000 1.0000
31.1400 1228.0000 1.0000
31.1500 1245.0000 1.0000
31.1600 1261.0000 1.0000
31.1700 1253.0000 1.0000
31.1800 1256.0000 1.0000
31.1900 1225.0000 1.0000
31.2000 1220.0000 1.0000
31.2100 1169.0000 1.0000
31.2200 1253.0000 1.0000
31.2300 1212.0000 1.0000
31.2400 1237.0000 1.0000
31.2500 1233.0000 1.0000
31.2600 1243.0000 1.0000
31.2700 1240.0000 1.0000
31.2800 1255.0000 1.0000
31.2900 1227.0000 1.0000
31.3000 1237.0000 1.0000
31.3100 1200.0000 1.0000
31.3200 1261.0000 1.0000
31.3300 1189.0000 1.0000
31.3400 1215.0000 1.0000
31.3500 1251.0000 1.0000
31.3600 1229.0000 1.0000
31.3700 1208.0000 1.0000
31.3800 1269.0000 1.0000
31.3900 1289.0000 1.0000
31.4000 1255.0000 1.0000
31.4100 1206.0000 1.0000
31.4200 1219.0000 1.0000
31.4300 1158.0000 1.0000
31.4400 1221.0000 1.0000
31.4500 1143.0000 1.0000
31.4600 1191.0000 1.0000
31.4700 1175.0000 1.0000
31.4800 1241.0000 1.0000
31.4900 1207.0000 1.0000
31.5000 1227.0000 1.0000
31.5100 1320.0000 1.0000
31.5200 1255.0000 1.0000
31.5300 1175.0000 1.0000
31.5400 1154.0000 1.0000
31.5500 1214.0000 1.0000
31.5600 1257.0000 1.0000
31.5700 1180.0000 1.0000
31.5800 1176.0000 1.0000
31.5900 1228.0000 1.0000
31.6000 1265.0000 1.0000
31.6100 1178.0000 1.0000
31.6200 1162.0000 1.0000
31.6300 1189.0000 1.0000
31.6400 1190.0000 1.0000
31.6500 1182.0000 1.0000
31.6600 1234.0000 1.0000
31.6700 1238.0000 1.0000
31.6800 1213.0000 1.0000
31.6900 1162.0000 1.0000
31.7000 1209.0000 1.0000
31.7100 1196.0000 1.0000
31.7200 1222.0000 1.0000
31.7300 1205.0000 1.0000
31.7400 1224.0000 1.0000
31.7500 1189.0000 1.0000
31.7600 1229.0000 1.0000
31.7700 1174.0000 1.0000
31.7800 1205.0000 1.0000
31.7900 1230.0000 1.0000
31.8000 1186.0000 1.0000
31.8100 1222.0000 1.0000
31.8200 1190.0000 1.0000
31.8300 1205.0000 1.0000
31.8400 1217.0000 1.0000
31.8500 1215.0000 1.0000
31.8600 1218.0000 1.0000
31.8700 1201.0000 1.0000
31.8800 1306.0000 1.0000
31.8900 1244.0000 1.0000
31.9000 1199.0000 1.0000
31.9100 1245.0000 1.0000
31.9200 1278.0000 1.0000
31.9300 1256.0000 1.0000
31.9400 1263.0000 1.0000
31.9500 1223.0000 1.0000
31.9600 1243.0000 1.0000
31.9700 1264.0000 1.0000
31.9800 1260.0000 1.0000
31.9900 1255.0000 1.0000
32.0000 1247.0000 1.0000
32.0100 1284.0000 1.0000
32.0200 1283.0000 1.0000
32.0300 1246.0000 1.0000
32.0400 1215.0000 1.0000
32.0500 1266.0000 1.0000
32.0600 1239.0000 1.0000
32.0700 1253.0000 1.0000
32.0800 1143.0000 1.0000
32.0900 1213.0000 1.0000
32.1000 1250.0000 1.0000
32.1100 1201.0000 1.0000
32.1200 1227.0000 1.0000
32.1300 1201.0000 1.0000
32.1400 1254.0000 1.0000
32.1500 1286.0000 1.0000
32.1600 1250.0000 1.0000
32.1700 1265.0000 1.0000
32.1800 1222.0000 1.0000
32.1900 1197.0000 1.0000
32.2000 1255.0000 1.0000
32.2100 1194.0000 1.0000
32.2200 1206.0000 1.0000
32.2300 1197.0000 1.0000
32.2400 1220.0000 1.0000
32.2500 1274.0000 1.0000
32.2600 1175.0000 1.0000
32.2700 1209.0000 1.0000
32.2800 1192.0000 1.0000
32.2900 1205.0000 1.0000
32.3000 1171.0000 1.0000
32.3100 1221.0000 1.0000
32.3200 1147.0000 1.0000
32.3300 1196.0000 1.0000
32.3400 1236.0000 1.0000
32.3500 1189.0000 1.0000
32.3600 1195.0000 1.0000
32.3700 1223.0000 1.0000
32.3800 1233.0000 1.0000
32.3900 1195.0000 1.0000
32.4000 1218.0000 1.0000
32.4100 1208.0000 1.0000
32.4200 1180.0000 1.0000
32.4300 1226.0000 1.0000
32.4400 1197.0000 1.0000
32.4500 1199.0000 1.0000
32.4600 1204.0000 1.0000
32.4700 1171.0000 1.0000
32.4800 1175.0000 1.0000
32.4900 1117.0000 1.0000
32.5000 1124.0000 1.0000
32.5100 1182.0000 1.0000
32.5200 1203.0000 1.0000
32.5300 1183.0000 1.0000
32.5400 1176.0000 1.0000
32.5500 1184.0000 1.0000
32.5600 1218.0000 1.0000
32.5700 1181.0000 1.0000
32.5800 1188.0000 1.0000
32.5900 1210.0000 1.0000
32.6000 1210.0000 1.0000
32.6100 1207.0000 1.0000
32.6200 1163.0000 1.0000
32.6300 1151.0000 1.0000
32.6400 1171.0000 1.0000
32.6500 1188.0000 1.0000
32.6600 1144.0000 1.0000
32.6700 1203.0000 1.0000
32.6800 1166.0000 1.0000
32.6900 1150.0000 1.0000
32.7000 1154.0000 1.0000
32.7100 1233.0000 1.0000
32.7200 1161.0000 1.0000
32.7300 1180.0000 1.0000
32.7400 1190.0000 1.0000
32.7500 1214.0000 1.0000
32.7600 1197.0000 1.0000
32.7700 1128.0000 1.0000
32.7800 1172.0000 1.0000
32.7900 1176.0000 1.0000
32.8000 1107.0000 1.0000
32.8100 1162.0000 1.0000
32.8200 1150.0000 1.0000
32.8300 1220.0000 1.0000
32.8400 1175.0000 1.0000
32.8500 1139.0000 1.0000
32.8600 1134.0000 1.0000
32.8700 1172.0000 1.0000
32.8800 1122.0000 1.0000
32.8900 1134.0000 1.0000
32.9000 1139.0000 1.0000
32.9100 1145.0000 1.0000
32.9200 1193.0000 1.0000
32.9300 1170.0000 1.0000
32.9400 1203.0000 1.0000
32.9500 1156.0000 1.0000
32.9600 1133.0000 1.0000
32.9700 1175.0000 1.0000
32.9800 1135.0000 1.0000
32.9900 1149.0000 1.0000
33.0000 1164.0000 1.0000
33.0100 1179.0000 1.0000
33.0200 1176.0000 1.0000
33.0300 1180.0000 1.0000
33.0400 1062.0000 1.0000
33.0500 1166.0000 1.0000
33.0600 1154.0000 1.0000
33.0700 1178.0000 1.0000
33.0800 1124.0000 1.0000
33.0900 1193.0000 1.0000
33.1000 1127.0000 1.0000
33.1100 1130.0000 1.0000
33.1200 1128.0000 1.0000
33.1300 1142.0000 1.0000
33.1400 1152.0000 1.0000
33.1500 1105.0000 1.0000
33.1600 1124.0000 1.0000
33.1700 1081.0000 1.0000
33.1800 1140.0000 1.0000
33.1900 1166.0000 1.0000
33.2000 1112.0000 1.0000
33.2100 1144.0000 1.0000
33.2200 1144.0000 1.0000
33.2300 1139.0000 1.0000
33.2400 1132.0000 1.0000
33.2500 1089.0000 1.0000
33.2600 1165.0000 1.0000
33.2700 1120.0000 1.0000
33.2800 1106.0000 1.0000
33.2900 1156.0000 1.0000
33.3000 1153.0000 1.0000
33.3100 1151.0000 1.0000
33.3200 1100.0000 1.0000
33.3300 1102.0000 1.0000
33.3400 1107.0000 1.0000
33.3500 1142.0000 1.0000
33.3600 1116.0000 1.0000
33.3700 1161.0000 1.0000
33.3800 1120.0000 1.0000
33.3900 1112.0000 1.0000
33.4000 1139.0000 1.0000
33.4100 1147.0000 1.0000
33.4200 1149.0000 1.0000
33.4300 1089.0000 1.0000
33.4400 1182.0000 1.0000
33.4500 1178.0000 1.0000
33.4600 1136.0000 1.0000
33.4700 1109.0000 1.0000
33.4800 1132.0000 1.0000
33.4900 1127.0000 1.0000
33.5000 1108.0000 1.0000
33.5100 1149.0000 1.0000
33.5200 1156.0000 1.0000
33.5300 1152.0000 1.0000
33.5400 1152.0000 1.0000
33.5500 1154.0000 1.0000
33.5600 1175.0000 1.0000
33.5700 1137.0000 1.0000
33.5800 1101.0000 1.0000
33.5900 1146.0000 1.0000
33.6000 1144.0000 1.0000
33.6100 1126.0000 1.0000
33.6200 1123.0000 1.0000
33.6300 1179.0000 1.0000
33.6400 1200.0000 1.0000
33.6500 1161.0000 1.0000
33.6600 1156.0000 1.0000
33.6700 1160.0000 1.0000
33.6800 1122.0000 1.0000
33.6900 1163.0000 1.0000
33.7000 1167.0000 1.0000
33.7100 1199.0000 1.0000
33.7200 1197.0000 1.0000
33.7300 1222.0000 1.0000
33.7400 1184.0000 1.0000
33.7500 1210.0000 1.0000
33.7600 1194.0000 1.0000
33.7700 1216.0000 1.0000
33.7800 1228.0000 1.0000
33.7900 1234.0000 1.0000
33.8000 1252.0000 1.0000
33.8100 1258.0000 1.0000
33.8200 1207.0000 1.0000
33.8300 1268.0000 1.0000
33.8400 1230.0000 1.0000
33.8500 1287.0000 1.0000
33.8600 1246.0000 1.0000
33.8700 1297.0000 1.0000
33.8800 1238.0000 1.0000
33.8900 1281.0000 1.0000
33.9000 1253.0000 1.0000
33.9100 1329.0000 1.0000
33.9200 1325.0000 1.0000
33.9300 1270.0000 1.0000
33.9400 1363.0000 1.0000
33.9500 1318.0000 1.0000
33.9600 1290.0000 1.0000
33.9700 1278.0000 1.0000
33.9800 1297.0000 1.0000
33.9900 1323.0000 1.0000
34.0000 1267.0000 1.0000
34.0100 1299.0000 1.0000
34.0200 1263.0000 1.0000
34.0300 1310.0000 1.0000
34.0400 1286.0000 1.0000
34.0500 1299.0000 1.0000
34.0600 1269.0000 1.0000
34.0700 1276.0000 1.0000
34.0800 1289.0000 1.0000
34.0900 1307.0000 1.0000
34.1000 1305.0000 1.0000
34.1100 1256.0000 1.0000
34.1200 1327.0000 1.0000
34.1300 1327.0000 1.0000
34.1400 1369.0000 1.0000
34.1500 1344.0000 1.0000
34.1600 1374.0000 1.0000
34.1700 1365.0000 1.0000
34.1800 1371.0000 1.0000
34.1900 1406.0000 1.0000
34.2000 1406.0000 1.0000
34.2100 1482.0000 1.0000
34.2200 1506.0000 1.0000
34.2300 1473.0000 1.0000
34.2400 1525.0000 1.0000
34.2500 1476.0000 1.0000
34.2600 1567.0000 1.0000
34.2700 1633.0000 1.0000
34.2800 1653.0000 1.0000
34.2900 1659.0000 1.0000
34.3000 1613.0000 1.0000
34.3100 1784.0000 1.0000
34.3200 1881.0000 1.0000
34.3300 1820.0000 1.0000
34.3400 1857.0000 1.0000
34.3500 1930.0000 1.0000
34.3600 2022.0000 1.0000
34.3700 2160.0000 1.0000
34.3800 2296.0000 1.0000
34.3900 2348.0000 1.0000
34.4000 2412.0000 1.0000
34.4100 2475.0000 1.0000
34.4200 2565.0000 1.0000
34.4300 2557.0000 1.0000
34.4400 2655.0000 1.0000
34.4500 2766.0000 1.0000
34.4600 2726.0000 1.0000
34.4700 2720.0000 1.0000
34.4800 2682.0000 1.0000
34.4900 2655.0000 1.0000
34.5000 2706.0000 1.0000
34.5100 2653.0000 1.0000
34.5200 2442.0000 1.0000
34.5300 2471.0000 1.0000
34.5400 2440.0000 1.0000
34.5500 2311.0000 1.0000
34.5600 2234.0000 1.0000
34.5700 2118.0000 1.0000
34.5800 2066.0000 1.0000
34.5900 1976.0000 1.0000
34.6000 1947.0000 1.0000
34.6100 1857.0000 1.0000
34.6200 1755.0000 1.0000
34.6300 1749.0000 1.0000
34.6400 1782.0000 1.0000
34.6500 1666.0000 1.0000
34.6600 1601.0000 1.0000
34.6700 1564.0000 1.0000
34.6800 1536.0000 1.0000
34.6900 1532.0000 1.0000
34.7000 1530.0000 1.0000
34.7100 1495.0000 1.0000
34.7200 1516.0000 1.0000
34.7300 1328.0000 1.0000
34.7400 1389.0000 1.0000
34.7500 1405.0000 1.0000
34.7600 1321.0000 1.0000
34.7700 1319.0000 1.0000
34.7800 1264.0000 1.0000
34.7900 1328.0000 1.0000
34.8000 1288.0000 1.0000
34.8100 1313.0000 1.0000
34.8200 1262.0000 1.0000
34.8300 1250.0000 1.0000
34.8400 1265.0000 1.0000
34.8500 1242.0000 1.0000
34.8600 1244.0000 1.0000
34.8700 1152.0000 1.0000
34.8800 1238.0000 1.0000
34.8900 1163.0000 1.0000
34.9000 1176.0000 1.0000
34.9100 1207.0000 1.0000
34.9200 1169.0000 1.0000
34.9300 1171.0000 1.0000
34.9400 1146.0000 1.0000
34.9500 1196.0000 1.0000
34.9600 1184.0000 1.0000
34.9700 1159.0000 1.0000
34.9800 1144.0000 1.0000
34.9900 1134.0000 1.0000
35.0000 1189.0000 1.0000
35.0100 1061.0000 1.0000
35.0200 1102.0000 1.0000
35.0300 1098.0000 1.0000
35.0400 1139.0000 1.0000
35.0500 1113.0000 1.0000
35.0600 1083.0000 1.0000
35.0700 1107.0000 1.0000
35.0800 1075.0000 1.0000
35.0900 1103.0000 1.0000
35.1000 1055.0000 1.0000
35.1100 1049.0000 1.0000
35.1200 1060.0000 1.0000
35.1300 1025.0000 1.0000
35.1400 1092.0000 1.0000
35.1500 1097.0000 1.0000
35.1600 1090.0000 1.0000
35.1700 1074.0000 1.0000
35.1800 1066.0000 1.0000
35.1900 1027.0000 1.0000
35.2000 1009.0000 1.0000
35.2100 1026.0000 1.0000
35.2200 1048.0000 1.0000
35.2300 1030.0000 1.0000
35.2400 1064.0000 1.0000
35.2500 1042.0000 1.0000
35.2600 1029.0000 1.0000
35.2700 1089.0000 1.0000
35.2800 1046.0000 1.0000
35.2900 1012.0000 1.0000
35.3000 977.0000 1.0000
35.3100 996.0000 1.0000
35.3200 984.0000 1.0000
35.3300 1049.0000 1.0000
35.3400 1058.0000 1.0000
35.3500 998.0000 1.0000
35.3600 987.0000 1.0000
35.3700 1011.0000 1.0000
35.3800 1017.0000 1.0000
35.3900 1006.0000 1.0000
35.4000 1032.0000 1.0000
35.4100 1042.0000 1.0000
35.4200 1040.0000 1.0000
35.4300 985.0000 1.0000
35.4400 1020.0000 1.0000
35.4500 1012.0000 1.0000
35.4600 1044.0000 1.0000
35.4700 1065.0000 1.0000
35.4800 1058.0000 1.0000
35.4900 1055.0000 1.0000
35.5000 1003.0000 1.0000
35.5100 948.0000 1.0000
35.5200 954.0000 1.0000
35.5300 1023.0000 1.0000
35.5400 993.0000 1.0000
35.5500 1065.0000 1.0000
35.5600 994.0000 1.0000
35.5700 1018.0000 1.0000
35.5800 987.0000 1.0000
35.5900 967.0000 1.0000
35.6000 993.0000 1.0000
35.6100 1008.0000 1.0000
35.6200 941.0000 1.0000
35.6300 1002.0000 1.0000
35.6400 999.0000 1.0000
35.6500 987.0000 1.0000
35.6600 1015.0000 1.0000
35.6700 983.0000 1.0000
35.6800 928.0000 1.0000
35.6900 995.0000 1.0000
35.7000 960.0000 1.0000
35.7100 997.0000 1.0000
35.7200 1005.0000 1.0000
35.7300 1016.0000 1.0000
35.7400 915.0000 1.0000
35.7500 1016.0000 1.0000
35.7600 988.0000 1.0000
35.7700 1028.0000 1.0000
35.7800 1016.0000 1.0000
35.7900 992.0000 1.0000
35.8000 1015.0000 1.0000
35.8100 990.0000 1.0000
35.8200 986.0000 1.0000
35.8300 988.0000 1.0000
35.8400 1005.0000 1.0000
35.8500 977.0000 1.0000
35.8600 963.0000 1.0000
35.8700 1005.0000 1.0000
35.8800 974.0000 1.0000
35.8900 975.0000 1.0000
35.9000 1012.0000 1.0000
35.9100 988.0000 1.0000
35.9200 969.0000 1.0000
35.9300 995.0000 1.0000
35.9400 985.0000 1.0000
35.9500 933.0000 1.0000
35.9600 964.0000 1.0000
35.9700 951.0000 1.0000
35.9800 948.0000 1.0000
35.9900 977.0000 1.0000
36.0000 1025.0000 1.0000
36.0100 1006.0000 1.0000
36.0200 1086.0000 1.0000
36.0300 1029.0000 1.0000
36.0400 1014.0000 1.0000
36.0500 978.0000 1.0000
36.0600 1024.0000 1.0000
36.0700 1013.0000 1.0000
36.0800 976.0000 1.0000
36.0900 999.0000 1.0000
36.1000 982.0000 1.0000
36.1100 1001.0000 1.0000
36.1200 1041.0000 1.0000
36.1300 1041.0000 1.0000
36.1400 1021.0000 1.0000
36.1500 1040.0000 1.0000
36.1600 1122.0000 1.0000
36.1700 1155.0000 1.0000
36.1800 1048.0000 1.0000
36.1900 1046.0000 1.0000
36.2000 1062.0000 1.0000
36.2100 1125.0000 1.0000
36.2200 1113.0000 1.0000
36.2300 1113.0000 1.0000
36.2400 1187.0000 1.0000
36.2500 1166.0000 1.0000
36.2600 1176.0000 1.0000
36.2700 1125.0000 1.0000
36.2800 1160.0000 1.0000
36.2900 1213.0000 1.0000
36.3000 1212.0000 1.0000
36.3100 1249.0000 1.0000
36.3200 1244.0000 1.0000
36.3300 1305.0000 1.0000
36.3400 1245.0000 1.0000
36.3500 1295.0000 1.0000
36.3600 1298.0000 1.0000
36.3700 1264.0000 1.0000
36.3800 1293.0000 1.0000
36.3900 1362.0000 1.0000
36.4000 1345.0000 1.0000
36.4100 1285.0000 1.0000
36.4200 1286.0000 1.0000
36.4300 1268.0000 1.0000
36.4400 1269.0000 1.0000
36.4500 1238.0000 1.0000
36.4600 1260.0000 1.0000
36.4700 1211.0000 1.0000
36.4800 1180.0000 1.0000
36.4900 1222.0000 1.0000
36.5000 1157.0000 1.0000
36.5100 1101.0000 1.0000
36.5200 1161.0000 1.0000
36.5300 1138.0000 1.0000
36.5400 1148.0000 1.0000
36.5500 1115.0000 1.0000
36.5600 1121.0000 1.0000
36.5700 1122.0000 1.0000
36.5800 1063.0000 1.0000
36.5900 1113.0000 1.0000
36.6000 1067.0000 1.0000
36.6100 1032.0000 1.0000
36.6200 959.0000 1.0000
36.6300 962.0000 1.0000
36.6400 1073.0000 1.0000
36.6500 1012.0000 1.0000
36.6600 1013.0000 1.0000
36.6700 1054.0000 1.0000
36.6800 989.0000 1.0000
36.6900 962.0000 1.0000
36.7000 986.0000 1.0000
36.7100 969.0000 1.0000
36.7200 977.0000 1.0000
36.7300 925.0000 1.0000
36.7400 950.0000 1.0000
36.7500 931.0000 1.0000
36.7600 923.0000 1.0000
36.7700 1009.0000 1.0000
36.7800 939.0000 1.0000
36.7900 914.0000 1.0000
36.8000 931.0000 1.0000
36.8100 924.0000 1.0000
36.8200 986.0000 1.0000
36.8300 906.0000 1.0000
36.8400 905.0000 1.0000
36.8500 958.0000 1.0000
36.8600 901.0000 1.0000
36.8700 884.0000 1.0000
36.8800 900.0000 1.0000
36.8900 911.0000 1.0000
36.9000 938.0000 1.0000
36.9100 881.0000 1.0000
36.9200 897.0000 1.0000
36.9300 932.0000 1.0000
36.9400 915.0000 1.0000
36.9500 867.0000 1.0000
36.9600 928.0000 1.0000
36.9700 938.0000 1.0000
36.9800 933.0000 1.0000
36.9900 911.0000 1.0000
37.0000 874.0000 1.0000
37.0100 891.0000 1.0000
37.0200 905.0000 1.0000
37.0300 858.0000 1.0000
37.0400 970.0000 1.0000
37.0500 937.0000 1.0000
37.0600 891.0000 1.0000
37.0700 901.0000 1.0000
37.0800 912.0000 1.0000
37.0900 932.0000 1.0000
37.1000 902.0000 1.0000
37.1100 871.0000 1.0000
37.1200 886.0000 1.0000
37.1300 974.0000 1.0000
37.1400 947.0000 1.0000
37.1500 896.0000 1.0000
37.1600 915.0000 1.0000
37.1700 978.0000 1.0000
37.1800 922.0000 1.0000
37.1900 869.0000 1.0000
37.2000 934.0000 1.0000
37.2100 946.0000 1.0000
37.2200 897.0000 1.0000
37.2300 879.0000 1.0000
37.2400 911.0000 1.0000
37.2500 907.0000 1.0000
37.2600 981.0000 1.0000
37.2700 917.0000 1.0000
37.2800 918.0000 1.0000
37.2900 887.0000 1.0000
37.3000 928.0000 1.0000
37.3100 857.0000 1.0000
37.3200 888.0000 1.0000
37.3300 936.0000 1.0000
37.3400 889.0000 1.0000
37.3500 924.0000 1.0000
37.3600 948.0000 1.0000
37.3700 928.0000 1.0000
37.3800 893.0000 1.0000
37.3900 923.0000 1.0000
37.4000 936.0000 1.0000
37.4100 954.0000 1.0000
37.4200 1001.0000 1.0000
37.4300 962.0000 1.0000
37.4400 861.0000 1.0000
37.4500 924.0000 1.0000
37.4600 913.0000 1.0000
37.4700 851.0000 1.0000
37.4800 853.0000 1.0000
37.4900 866.0000 1.0000
37.5000 920.0000 1.0000
37.5100 906.0000 1.0000
37.5200 891.0000 1.0000
37.5300 887.0000 1.0000
37.5400 975.0000 1.0000
37.5500 852.0000 1.0000
37.5600 889.0000 1.0000
37.5700 931.0000 1.0000
37.5800 952.0000 1.0000
37.5900 913.0000 1.0000
37.6000 901.0000 1.0000
37.6100 884.0000 1.0000
37.6200 905.0000 1.0000
37.6300 842.0000 1.0000
37.6400 894.0000 1.0000
37.6500 886.0000 1.0000
37.6600 950.0000 1.0000
37.6700 941.0000 1.0000
37.6800 893.0000 1.0000
37.6900 944.0000 1.0000
37.7000 964.0000 1.0000
37.7100 954.0000 1.0000
37.7200 906.0000 1.0000
37.7300 891.0000 1.0000
37.7400 897.0000 1.0000
37.7500 914.0000 1.0000
37.7600 877.0000 1.0000
37.7700 934.0000 1.0000
37.7800 948.0000 1.0000
37.7900 914.0000 1.0000
37.8000 938.0000 1.0000
37.8100 926.0000 1.0000
37.8200 910.0000 1.0000
37.8300 916.0000 1.0000
37.8400 937.0000 1.0000
37.8500 905.0000 1.0000
37.8600 973.0000 1.0000
37.8700 933.0000 1.0000
37.8800 969.0000 1.0000
37.8900 963.0000 1.0000
37.9000 963.0000 1.0000
37.9100 984.0000 1.0000
37.9200 937.0000 1.0000
37.9300 1047.0000 1.0000
37.9400 997.0000 1.0000
37.9500 1021.0000 1.0000
37.9600 1009.0000 1.0000
37.9700 1011.0000 1.0000
37.9800 1050.0000 1.0000
37.9900 1047.0000 1.0000
38.0000 964.0000 1.0000
38.0100 1013.0000 1.0000
38.0200 1003.0000 1.0000
38.0300 1005.0000 1.0000
38.0400 1031.0000 1.0000
38.0500 1086.0000 1.0000
38.0600 1082.0000 1.0000
38.0700 1096.0000 1.0000
38.0800 1103.0000 1.0000
38.0900 1094.0000 1.0000
38.1000 1203.0000 1.0000
38.1100 1146.0000 1.0000
38.1200 1200.0000 1.0000
38.1300 1179.0000 1.0000
38.1400 1299.0000 1.0000
38.1500 1235.0000 1.0000
38.1600 1256.0000 1.0000
38.1700 1318.0000 1.0000
38.1800 1422.0000 1.0000
38.1900 1397.0000 1.0000
38.2000 1427.0000 1.0000
38.2100 1539.0000 1.0000
38.2200 1587.0000 1.0000
38.2300 1685.0000 1.0000
38.2400 1697.0000 1.0000
38.2500 1772.0000 1.0000
38.2600 1804.0000 1.0000
38.2700 1906.0000 1.0000
38.2800 2018.0000 1.0000
38.2900 2140.0000 1.0000
38.3000 2237.0000 1.0000
38.3100 2383.0000 1.0000
38.3200 2417.0000 1.0000
38.3300 2675.0000 1.0000
38.3400 2794.0000 1.0000
38.3500 3060.0000 1.0000
38.3600 3370.0000 1.0000
38.3700 3495.0000 1.0000
38.3800 3693.0000 1.0000
38.3900 4033.0000 1.0000
38.4000 4403.0000 1.0000
38.4100 4654.0000 1.0000
38.4200 5015.0000 1.0000
38.4300 5538.0000 1.0000
38.4400 5715.0000 1.0000
38.4500 6127.0000 1.0000
38.4600 6367.0000 1.0000
38.4700 6715.0000 1.0000
38.4800 6776.0000 1.0000
38.4900 7013.0000 1.0000
38.5000 7045.0000 1.0000
38.5100 7077.0000 1.0000
38.5200 7156.0000 1.0000
38.5300 7127.0000 1.0000
38.5400 6990.0000 1.0000
38.5500 6847.0000 1.0000
38.5600 6538.0000 1.0000
38.5700 6363.0000 1.0000
38.5800 6120.0000 1.0000
38.5900 5706.0000 1.0000
38.6000 5320.0000 1.0000
38.6100 5277.0000 1.0000
38.6200 5030.0000 1.0000
38.6300 4613.0000 1.0000
38.6400 4346.0000 1.0000
38.6500 4011.0000 1.0000
38.6600 3828.0000 1.0000
38.6700 3531.0000 1.0000
38.6800 3298.0000 1.0000
38.6900 2996.0000 1.0000
38.7000 2832.0000 1.0000
38.7100 2631.0000 1.0000
38.7200 2435.0000 1.0000
38.7300 2315.0000 1.0000
38.7400 2180.0000 1.0000
38.7500 2062.0000 1.0000
38.7600 1948.0000 1.0000
38.7700 1826.0000 1.0000
38.7800 1755.0000 1.0000
38.7900 1706.0000 1.0000
38.8000 1578.0000 1.0000
38.8100 1528.0000 1.0000
38.8200 1470.0000 1.0000
38.8300 1369.0000 1.0000
38.8400 1364.0000 1.0000
38.8500 1349.0000 1.0000
38.8600 1336.0000 1.0000
38.8700 1273.0000 1.0000
38.8800 1208.0000 1.0000
38.8900 1131.0000 1.0000
38.9000 1141.0000 1.0000
38.9100 1177.0000 1.0000
38.9200 1201.0000 1.0000
38.9300 1067.0000 1.0000
38.9400 1058.0000 1.0000
38.9500 1002.0000 1.0000
38.9600 1039.0000 1.0000
38.9700 1008.0000 1.0000
38.9800 978.0000 1.0000
38.9900 990.0000 1.0000
39.0000 1019.0000 1.0000
39.0100 998.0000 1.0000
39.0200 973.0000 1.0000
39.0300 939.0000 1.0000
39.0400 946.0000 1.0000
39.0500 925.0000 1.0000
39.0600 918.0000 1.0000
39.0700 942.0000 1.0000
39.0800 911.0000 1.0000
39.0900 925.0000 1.0000
39.1000 881.0000 1.0000
39.1100 885.0000 1.0000
39.1200 849.0000 1.0000
39.1300 879.0000 1.0000
39.1400 881.0000 1.0000
39.1500 889.0000 1.0000
39.1600 886.0000 1.0000
39.1700 884.0000 1.0000
39.1800 826.0000 1.0000
39.1900 867.0000 1.0000
39.2000 851.0000 1.0000
39.2100 930.0000 1.0000
39.2200 922.0000 1.0000
39.2300 830.0000 1.0000
39.2400 838.0000 1.0000
39.2500 828.0000 1.0000
39.2600 840.0000 1.0000
39.2700 901.0000 1.0000
39.2800 830.0000 1.0000
39.2900 834.0000 1.0000
39.3000 791.0000 1.0000
39.3100 824.0000 1.0000
39.3200 802.0000 1.0000
39.3300 815.0000 1.0000
39.3400 854.0000 1.0000
39.3500 845.0000 1.0000
39.3600 844.0000 1.0000
39.3700 839.0000 1.0000
39.3800 862.0000 1.0000
39.3900 897.0000 1.0000
39.4000 832.0000 1.0000
39.4100 847.0000 1.0000
39.4200 851.0000 1.0000
39.4300 849.0000 1.0000
39.4400 832.0000 1.0000
39.4500 851.0000 1.0000
39.4600 894.0000 1.0000
39.4700 850.0000 1.0000
39.4800 850.0000 1.0000
39.4900 869.0000 1.0000
39.5000 857.0000 1.0000
39.5100 843.0000 1.0000
39.5200 847.0000 1.0000
39.5300 859.0000 1.0000
39.5400 886.0000 1.0000
39.5500 845.0000 1.0000
39.5600 863.0000 1.0000
39.5700 871.0000 1.0000
39.5800 865.0000 1.0000
39.5900 817.0000 1.0000
39.6000 815.0000 1.0000
39.6100 879.0000 1.0000
39.6200 814.0000 1.0000
39.6300 853.0000 1.0000
39.6400 826.0000 1.0000
39.6500 871.0000 1.0000
39.6600 810.0000 1.0000
39.6700 789.0000 1.0000
39.6800 847.0000 1.0000
39.6900 830.0000 1.0000
39.7000 833.0000 1.0000
39.7100 839.0000 1.0000
39.7200 845.0000 1.0000
39.7300 833.0000 1.0000
39.7400 805.0000 1.0000
39.7500 795.0000 1.0000
39.7600 798.0000 1.0000
39.7700 777.0000 1.0000
39.7800 784.0000 1.0000
39.7900 817.0000 1.0000
39.8000 793.0000 1.0000
39.8100 823.0000 1.0000
39.8200 817.0000 1.0000
39.8300 802.0000 1.0000
39.8400 783.0000 1.0000
39.8500 807.0000 1.0000
39.8600 798.0000 1.0000
39.8700 812.0000 1.0000
39.8800 779.0000 1.0000
39.8900 786.0000 1.0000
39.9000 839.0000 1.0000
39.9100 803.0000 1.0000
39.9200 743.0000 1.0000
39.9300 751.0000 1.0000
39.9400 740.0000 1.0000
39.9500 802.0000 1.0000
39.9600 775.0000 1.0000
39.9700 803.0000 1.0000
39.9800 820.0000 1.0000
39.9900 762.0000 1.0000
40.0000 782.0000 1.0000
40.0100 799.0000 1.0000
40.0200 781.0000 1.0000
40.0300 773.0000 1.0000
40.0400 795.0000 1.0000
40.0500 757.0000 1.0000
40.0600 728.0000 1.0000
40.0700 776.0000 1.0000
40.0800 750.0000 1.0000
40.0900 754.0000 1.0000
40.1000 780.0000 1.0000
40.1100 786.0000 1.0000
40.1200 775.0000 1.0000
40.1300 790.0000 1.0000
40.1400 772.0000 1.0000
40.1500 783.0000 1.0000
40.1600 740.0000 1.0000
40.1700 770.0000 1.0000
40.1800 771.0000 1.0000
40.1900 769.0000 1.0000
40.2000 768.0000 1.0000
40.2100 728.0000 1.0000
40.2200 738.0000 1.0000
40.2300 726.0000 1.0000
40.2400 731.0000 1.0000
40.2500 763.0000 1.0000
40.2600 748.0000 1.0000
40.2700 704.0000 1.0000
40.2800 728.0000 1.0000
40.2900 738.0000 1.0000
40.3000 761.0000 1.0000
40.3100 772.0000 1.0000
40.3200 782.0000 1.0000
40.3300 759.0000 1.0000
40.3400 796.0000 1.0000
40.3500 782.0000 1.0000
40.3600 751.0000 1.0000
40.3700 765.0000 1.0000
40.3800 763.0000 1.0000
40.3900 730.0000 1.0000
40.4000 710.0000 1.0000
40.4100 788.0000 1.0000
40.4200 720.0000 1.0000
40.4300 718.0000 1.0000
40.4400 790.0000 1.0000
40.4500 764.0000 1.0000
40.4600 770.0000 1.0000
40.4700 772.0000 1.0000
40.4800 790.0000 1.0000
40.4900 738.0000 1.0000
40.5000 742.0000 1.0000
40.5100 716.0000 1.0000
40.5200 775.0000 1.0000
40.5300 736.0000 1.0000
40.5400 759.0000 1.0000
40.5500 786.0000 1.0000
40.5600 808.0000 1.0000
40.5700 743.0000 1.0000
40.5800 764.0000 1.0000
40.5900 730.0000 1.0000
40.6000 767.0000 1.0000
40.6100 794.0000 1.0000
40.6200 754.0000 1.0000
40.6300 790.0000 1.0000
40.6400 708.0000 1.0000
40.6500 737.0000 1.0000
40.6600 778.0000 1.0000
40.6700 728.0000 1.0000
40.6800 757.0000 1.0000
40.6900 757.0000 1.0000
40.7000 739.0000 1.0000
40.7100 768.0000 1.0000
40.7200 758.0000 1.0000
40.7300 735.0000 1.0000
40.7400 759.0000 1.0000
40.7500 684.0000 1.0000
40.7600 734.0000 1.0000
40.7700 765.0000 1.0000
40.7800 753.0000 1.0000
40.7900 700.0000 1.0000
40.8000 760.0000 1.0000
40.8100 745.0000 1.0000
40.8200 748.0000 1.0000
40.8300 762.0000 1.0000
40.8400 726.0000 1.0000
40.8500 751.0000 1.0000
40.8600 711.0000 1.0000
40.8700 746.0000 1.0000
40.8800 739.0000 1.0000
40.8900 744.0000 1.0000
40.9000 757.0000 1.0000
40.9100 772.0000 1.0000
40.9200 747.0000 1.0000
40.9300 749.0000 1.0000
40.9400 733.0000 1.0000
40.9500 762.0000 1.0000
40.9600 729.0000 1.0000
40.9700 737.0000 1.0000
40.9800 755.0000 1.0000
40.9900 783.0000 1.0000
41.0000 744.0000 1.0000
41.0100 770.0000 1.0000
41.0200 793.0000 1.0000
41.0300 774.0000 1.0000
41.0400 730.0000 1.0000
41.0500 717.0000 1.0000
41.0600 732.0000 1.0000
41.0700 751.0000 1.0000
41.0800 745.0000 1.0000
41.0900 760.0000 1.0000
41.1000 793.0000 1.0000
41.1100 779.0000 1.0000
41.1200 751.0000 1.0000
41.1300 727.0000 1.0000
41.1400 732.0000 1.0000
41.1500 744.0000 1.0000
41.1600 729.0000 1.0000
41.1700 735.0000 1.0000
41.1800 732.0000 1.0000
41.1900 725.0000 1.0000
41.2000 716.0000 1.0000
41.2100 734.0000 1.0000
41.2200 756.0000 1.0000
41.2300 736.0000 1.0000
41.2400 708.0000 1.0000
41.2500 744.0000 1.0000
41.2600 741.0000 1.0000
41.2700 729.0000 1.0000
41.2800 742.0000 1.0000
41.2900 784.0000 1.0000
41.3000 764.0000 1.0000
41.3100 751.0000 1.0000
41.3200 732.0000 1.0000
41.3300 753.0000 1.0000
41.3400 751.0000 1.0000
41.3500 748.0000 1.0000
41.3600 695.0000 1.0000
41.3700 756.0000 1.0000
41.3800 779.0000 1.0000
41.3900 723.0000 1.0000
41.4000 745.0000 1.0000
41.4100 762.0000 1.0000
41.4200 742.0000 1.0000
41.4300 721.0000 1.0000
41.4400 721.0000 1.0000
41.4500 728.0000 1.0000
41.4600 733.0000 1.0000
41.4700 741.0000 1.0000
41.4800 769.0000 1.0000
41.4900 759.0000 1.0000
41.5000 762.0000 1.0000
41.5100 797.0000 1.0000
41.5200 790.0000 1.0000
41.5300 760.0000 1.0000
41.5400 741.0000 1.0000
41.5500 740.0000 1.0000
41.5600 754.0000 1.0000
41.5700 784.0000 1.0000
41.5800 741.0000 1.0000
41.5900 776.0000 1.0000
41.6000 757.0000 1.0000
41.6100 758.0000 1.0000
41.6200 735.0000 1.0000
41.6300 758.0000 1.0000
41.6400 729.0000 1.0000
41.6500 761.0000 1.0000
41.6600 745.0000 1.0000
41.6700 778.0000 1.0000
41.6800 738.0000 1.0000
41.6900 736.0000 1.0000
41.7000 772.0000 1.0000
41.7100 773.0000 1.0000
41.7200 744.0000 1.0000
41.7300 730.0000 1.0000
41.7400 785.0000 1.0000
41.7500 756.0000 1.0000
41.7600 770.0000 1.0000
41.7700 766.0000 1.0000
41.7800 743.0000 1.0000
41.7900 748.0000 1.0000
41.8000 749.0000 1.0000
41.8100 741.0000 1.0000
41.8200 740.0000 1.0000
41.8300 723.0000 1.0000
41.8400 686.0000 1.0000
41.8500 720.0000 1.0000
41.8600 739.0000 1.0000
41.8700 729.0000 1.0000
41.8800 766.0000 1.0000
41.8900 727.0000 1.0000
41.9000 710.0000 1.0000
41.9100 769.0000 1.0000
41.9200 746.0000 1.0000
41.9300 757.0000 1.0000
41.9400 759.0000 1.0000
41.9500 748.0000 1.0000
41.9600 710.0000 1.0000
41.9700 748.0000 1.0000
41.9800 742.0000 1.0000
41.9900 700.0000 1.0000
42.0000 702.0000 1.0000
42.0100 746.0000 1.0000
42.0200 748.0000 1.0000
42.0300 729.0000 1.0000
42.0400 738.0000 1.0000
42.0500 760.0000 1.0000
42.0600 719.0000 1.0000
42.0700 725.0000 1.0000
42.0800 783.0000 1.0000
42.0900 766.0000 1.0000
42.1000 727.0000 1.0000
42.1100 718.0000 1.0000
42.1200 770.0000 1.0000
42.1300 734.0000 1.0000
42.1400 728.0000 1.0000
42.1500 730.0000 1.0000
42.1600 722.0000 1.0000
42.1700 731.0000 1.0000
42.1800 741.0000 1.0000
42.1900 759.0000 1.0000
42.2000 729.0000 1.0000
42.2100 740.0000 1.0000
42.2200 712.0000 1.0000
42.2300 711.0000 1.0000
42.2400 740.0000 1.0000
42.2500 726.0000 1.0000
42.2600 725.0000 1.0000
42.2700 735.0000 1.0000
42.2800 710.0000 1.0000
42.2900 758.0000 1.0000
42.3000 703.0000 1.0000
42.3100 783.0000 1.0000
42.3200 718.0000 1.0000
42.3300 738.0000 1.0000
42.3400 716.0000 1.0000
42.3500 675.0000 1.0000
42.3600 723.0000 1.0000
42.3700 759.0000 1.0000
42.3800 728.0000 1.0000
42.3900 711.0000 1.0000
42.4000 729.0000 1.0000
42.4100 697.0000 1.0000
42.4200 713.0000 1.0000
42.4300 727.0000 1.0000
42.4400 741.0000 1.0000
42.4500 750.0000 1.0000
42.4600 767.0000 1.0000
42.4700 762.0000 1.0000
42.4800 697.0000 1.0000
42.4900 714.0000 1.0000
42.5000 740.0000 1.0000
42.5100 766.0000 1.0000
42.5200 755.0000 1.0000
42.5300 688.0000 1.0000
42.5400 669.0000 1.0000
42.5500 737.0000 1.0000
42.5600 737.0000 1.0000
42.5700 728.0000 1.0000
42.5800 709.0000 1.0000
42.5900 719.0000 1.0000
42.6000 717.0000 1.0000
42.6100 687.0000 1.0000
42.6200 737.0000 1.0000
42.6300 732.0000 1.0000
42.6400 716.0000 1.0000
42.6500 760.0000 1.0000
42.6600 784.0000 1.0000
42.6700 739.0000 1.0000
42.6800 699.0000 1.0000
42.6900 707.0000 1.0000
42.7000 714.0000 1.0000
42.7100 722.0000 1.0000
42.7200 714.0000 1.0000
42.7300 732.0000 1.0000
42.7400 726.0000 1.0000
42.7500 745.0000 1.0000
42.7600 754.0000 1.0000
42.7700 715.0000 1.0000
42.7800 758.0000 1.0000
42.7900 729.0000 1.0000
42.8000 724.0000 1.0000
42.8100 710.0000 1.0000
42.8200 734.0000 1.0000
42.8300 710.0000 1.0000
42.8400 722.0000 1.0000
42.8500 713.0000 1.0000
42.8600 732.0000 1.0000
42.8700 709.0000 1.0000
42.8800 709.0000 1.0000
42.8900 702.0000 1.0000
42.9000 743.0000 1.0000
42.9100 728.0000 1.0000
42.9200 734.0000 1.0000
42.9300 764.0000 1.0000
42.9400 768.0000 1.0000
42.9500 731.0000 1.0000
42.9600 768.0000 1.0000
42.9700 798.0000 1.0000
42.9800 750.0000 1.0000
42.9900 756.0000 1.0000
43.0000 719.0000 1.0000
43.0100 718.0000 1.0000
43.0200 776.0000 1.0000
43.0300 782.0000 1.0000
43.0400 767.0000 1.0000
43.0500 741.0000 1.0000
43.0600 729.0000 1.0000
43.0700 764.0000 1.0000
43.0800 773.0000 1.0000
43.0900 833.0000 1.0000
43.1000 772.0000 1.0000
43.1100 744.0000 1.0000
43.1200 779.0000 1.0000
43.1300 804.0000 1.0000
43.1400 804.0000 1.0000
43.1500 806.0000 1.0000
43.1600 801.0000 1.0000
43.1700 780.0000 1.0000
43.1800 817.0000 1.0000
43.1900 766.0000 1.0000
43.2000 824.0000 1.0000
43.2100 795.0000 1.0000
43.2200 790.0000 1.0000
43.2300 798.0000 1.0000
43.2400 817.0000 1.0000
43.2500 815.0000 1.0000
43.2600 781.0000 1.0000
43.2700 826.0000 1.0000
43.2800 766.0000 1.0000
43.2900 781.0000 1.0000
43.3000 808.0000 1.0000
43.3100 846.0000 1.0000
43.3200 794.0000 1.0000
43.3300 781.0000 1.0000
43.3400 768.0000 1.0000
43.3500 760.0000 1.0000
43.3600 789.0000 1.0000
43.3700 817.0000 1.0000
43.3800 775.0000 1.0000
43.3900 744.0000 1.0000
43.4000 745.0000 1.0000
43.4100 779.0000 1.0000
43.4200 732.0000 1.0000
43.4300 745.0000 1.0000
43.4400 799.0000 1.0000
43.4500 733.0000 1.0000
43.4600 758.0000 1.0000
43.4700 748.0000 1.0000
43.4800 727.0000 1.0000
43.4900 757.0000 1.0000
43.5000 718.0000 1.0000
43.5100 724.0000 1.0000
43.5200 755.0000 1.0000
43.5300 727.0000 1.0000
43.5400 727.0000 1.0000
43.5500 726.0000 1.0000
43.5600 662.0000 1.0000
43.5700 713.0000 1.0000
43.5800 690.0000 1.0000
43.5900 726.0000 1.0000
43.6000 695.0000 1.0000
43.6100 747.0000 1.0000
43.6200 707.0000 1.0000
43.6300 734.0000 1.0000
43.6400 739.0000 1.0000
43.6500 712.0000 1.0000
43.6600 681.0000 1.0000
43.6700 664.0000 1.0000
43.6800 745.0000 1.0000
43.6900 672.0000 1.0000
43.7000 697.0000 1.0000
43.7100 691.0000 1.0000
43.7200 733.0000 1.0000
43.7300 722.0000 1.0000
43.7400 716.0000 1.0000
43.7500 713.0000 1.0000
43.7600 735.0000 1.0000
43.7700 705.0000 1.0000
43.7800 701.0000 1.0000
43.7900 716.0000 1.0000
43.8000 695.0000 1.0000
43.8100 661.0000 1.0000
43.8200 728.0000 1.0000
43.8300 702.0000 1.0000
43.8400 721.0000 1.0000
43.8500 747.0000 1.0000
43.8600 744.0000 1.0000
43.8700 676.0000 1.0000
43.8800 668.0000 1.0000
43.8900 725.0000 1.0000
43.9000 752.0000 1.0000
43.9100 723.0000 1.0000
43.9200 698.0000 1.0000
43.9300 691.0000 1.0000
43.9400 718.0000 1.0000
43.9500 733.0000 1.0000
43.9600 701.0000 1.0000
43.9700 683.0000 1.0000
43.9800 726.0000 1.0000
43.9900 736.0000 1.0000
44.0000 653.0000 1.0000
44.0100 685.0000 1.0000
44.0200 747.0000 1.0000
44.0300 690.0000 1.0000
44.0400 669.0000 1.0000
44.0500 687.0000 1.0000
44.0600 726.0000 1.0000
44.0700 691.0000 1.0000
44.0800 696.0000 1.0000
44.0900 739.0000 1.0000
44.1000 714.0000 1.0000
44.1100 703.0000 1.0000
44.1200 673.0000 1.0000
44.1300 693.0000 1.0000
44.1400 683.0000 1.0000
44.1500 698.0000 1.0000
44.1600 664.0000 1.0000
44.1700 700.0000 1.0000
44.1800 708.0000 1.0000
44.1900 694.0000 1.0000
44.2000 740.0000 1.0000
44.2100 693.0000 1.0000
44.2200 689.0000 1.0000
44.2300 700.0000 1.0000
44.2400 705.0000 1.0000
44.2500 708.0000 1.0000
44.2600 719.0000 1.0000
44.2700 743.0000 1.0000
44.2800 755.0000 1.0000
44.2900 701.0000 1.0000
44.3000 680.0000 1.0000
44.3100 707.0000 1.0000
44.3200 673.0000 1.0000
44.3300 690.0000 1.0000
44.3400 709.0000 1.0000
44.3500 649.0000 1.0000
44.3600 661.0000 1.0000
44.3700 668.0000 1.0000
44.3800 697.0000 1.0000
44.3900 716.0000 1.0000
44.4000 729.0000 1.0000
44.4100 727.0000 1.0000
44.4200 688.0000 1.0000
44.4300 716.0000 1.0000
44.4400 657.0000 1.0000
44.4500 655.0000 1.0000
44.4600 703.0000 1.0000
44.4700 689.0000 1.0000
44.4800 695.0000 1.0000
44.4900 667.0000 1.0000
44.5000 698.0000 1.0000
44.5100 717.0000 1.0000
44.5200 691.0000 1.0000
44.5300 694.0000 1.0000
44.5400 695.0000 1.0000
44.5500 692.0000 1.0000
44.5600 727.0000 1.0000
44.5700 729.0000 1.0000
44.5800 685.0000 1.0000
44.5900 713.0000 1.0000
44.6000 709.0000 1.0000
44.6100 676.0000 1.0000
44.6200 686.0000 1.0000
44.6300 748.0000 1.0000
44.6400 677.0000 1.0000
44.6500 665.0000 1.0000
44.6600 670.0000 1.0000
44.6700 676.0000 1.0000
44.6800 696.0000 1.0000
44.6900 676.0000 1.0000
44.7000 694.0000 1.0000
44.7100 718.0000 1.0000
44.7200 695.0000 1.0000
44.7300 666.0000 1.0000
44.7400 699.0000 1.0000
44.7500 695.0000 1.0000
44.7600 690.0000 1.0000
44.7700 684.0000 1.0000
44.7800 607.0000 1.0000
44.7900 664.0000 1.0000
44.8000 719.0000 1.0000
44.8100 674.0000 1.0000
44.8200 669.0000 1.0000
44.8300 704.0000 1.0000
44.8400 693.0000 1.0000
44.8500 678.0000 1.0000
44.8600 703.0000 1.0000
44.8700 671.0000 1.0000
44.8800 670.0000 1.0000
44.8900 694.0000 1.0000
44.9000 691.0000 1.0000
44.9100 650.0000 1.0000
44.9200 682.0000 1.0000
44.9300 684.0000 1.0000
44.9400 696.0000 1.0000
44.9500 733.0000 1.0000
44.9600 670.0000 1.0000
44.9700 648.0000 1.0000
44.9800 685.0000 1.0000
44.9900 735.0000 1.0000
45.0000 671.0000 1.0000
45.0100 703.0000 1.0000
45.0200 697.0000 1.0000
45.0300 645.0000 1.0000
45.0400 693.0000 1.0000
45.0500 679.0000 1.0000
45.0600 687.0000 1.0000
45.0700 666.0000 1.0000
45.0800 703.0000 1.0000
45.0900 693.0000 1.0000
45.1000 683.0000 1.0000
45.1100 684.0000 1.0000
45.1200 738.0000 1.0000
45.1300 694.0000 1.0000
45.1400 671.0000 1.0000
45.1500 644.0000 1.0000
45.1600 692.0000 1.0000
45.1700 681.0000 1.0000
45.1800 661.0000 1.0000
45.1900 676.0000 1.0000
45.2000 670.0000 1.0000
45.2100 673.0000 1.0000
45.2200 664.0000 1.0000
45.2300 688.0000 1.0000
45.2400 675.0000 1.0000
45.2500 654.0000 1.0000
45.2600 673.0000 1.0000
45.2700 641.0000 1.0000
45.2800 650.0000 1.0000
45.2900 772.0000 1.0000
45.3000 676.0000 1.0000
45.3100 678.0000 1.0000
45.3200 680.0000 1.0000
45.3300 657.0000 1.0000
45.3400 682.0000 1.0000
45.3500 722.0000 1.0000
45.3600 682.0000 1.0000
45.3700 665.0000 1.0000
45.3800 681.0000 1.0000
45.3900 646.0000 1.0000
45.4000 644.0000 1.0000
45.4100 641.0000 1.0000
45.4200 688.0000 1.0000
45.4300 682.0000 1.0000
45.4400 707.0000 1.0000
45.4500 642.0000 1.0000
45.4600 668.0000 1.0000
45.4700 652.0000 1.0000
45.4800 649.0000 1.0000
45.4900 667.0000 1.0000
45.5000 675.0000 1.0000
45.5100 679.0000 1.0000
45.5200 675.0000 1.0000
45.5300 613.0000 1.0000
45.5400 642.0000 1.0000
45.5500 622.0000 1.0000
45.5600 651.0000 1.0000
45.5700 658.0000 1.0000
45.5800 684.0000 1.0000
45.5900 649.0000 1.0000
45.6000 645.0000 1.0000
45.6100 688.0000 1.0000
45.6200 648.0000 1.0000
45.6300 650.0000 1.0000
45.6400 626.0000 1.0000
45.6500 635.0000 1.0000
45.6600 642.0000 1.0000
45.6700 697.0000 1.0000
45.6800 667.0000 1.0000
45.6900 692.0000 1.0000
45.7000 671.0000 1.0000
45.7100 718.0000 1.0000
45.7200 661.0000 1.0000
45.7300 649.0000 1.0000
45.7400 667.0000 1.0000
45.7500 679.0000 1.0000
45.7600 682.0000 1.0000
45.7700 679.0000 1.0000
45.7800 644.0000 1.0000
45.7900 660.0000 1.0000
45.8000 637.0000 1.0000
45.8100 655.0000 1.0000
45.8200 647.0000 1.0000
45.8300 612.0000 1.0000
45.8400 643.0000 1.0000
45.8500 627.0000 1.0000
45.8600 672.0000 1.0000
45.8700 691.0000 1.0000
45.8800 684.0000 1.0000
45.8900 705.0000 1.0000
45.9000 688.0000 1.0000
45.9100 671.0000 1.0000
45.9200 682.0000 1.0000
45.9300 672.0000 1.0000
45.9400 690.0000 1.0000
45.9500 625.0000 1.0000
45.9600 662.0000 1.0000
45.9700 662.0000 1.0000
45.9800 664.0000 1.0000
45.9900 640.0000 1.0000
46.0000 684.0000 1.0000
46.0100 677.0000 1.0000
46.0200 651.0000 1.0000
46.0300 639.0000 1.0000
46.0400 659.0000 1.0000
46.0500 662.0000 1.0000
46.0600 708.0000 1.0000
46.0700 700.0000 1.0000
46.0800 690.0000 1.0000
46.0900 679.0000 1.0000
46.1000 660.0000 1.0000
46.1100 675.0000 1.0000
46.1200 665.0000 1.0000
46.1300 685.0000 1.0000
46.1400 695.0000 1.0000
46.1500 666.0000 1.0000
46.1600 629.0000 1.0000
46.1700 672.0000 1.0000
46.1800 654.0000 1.0000
46.1900 638.0000 1.0000
46.2000 663.0000 1.0000
46.2100 645.0000 1.0000
46.2200 646.0000 1.0000
46.2300 627.0000 1.0000
46.2400 656.0000 1.0000
46.2500 684.0000 1.0000
46.2600 628.0000 1.0000
46.2700 656.0000 1.0000
46.2800 650.0000 1.0000
46.2900 652.0000 1.0000
46.3000 648.0000 1.0000
46.3100 674.0000 1.0000
46.3200 670.0000 1.0000
46.3300 619.0000 1.0000
46.3400 619.0000 1.0000
46.3500 622.0000 1.0000
46.3600 642.0000 1.0000
46.3700 635.0000 1.0000
46.3800 623.0000 1.0000
46.3900 702.0000 1.0000
46.4000 660.0000 1.0000
46.4100 636.0000 1.0000
46.4200 628.0000 1.0000
46.4300 642.0000 1.0000
46.4400 711.0000 1.0000
46.4500 665.0000 1.0000
46.4600 660.0000 1.0000
46.4700 655.0000 1.0000
46.4800 648.0000 1.0000
46.4900 678.0000 1.0000
46.5000 661.0000 1.0000
46.5100 654.0000 1.0000
46.5200 657.0000 1.0000
46.5300 638.0000 1.0000
46.5400 630.0000 1.0000
46.5500 617.0000 1.0000
46.5600 692.0000 1.0000
46.5700 628.0000 1.0000
46.5800 669.0000 1.0000
46.5900 625.0000 1.0000
46.6000 667.0000 1.0000
46.6100 667.0000 1.0000
46.6200 615.0000 1.0000
46.6300 653.0000 1.0000
46.6400 636.0000 1.0000
46.6500 632.0000 1.0000
46.6600 648.0000 1.0000
46.6700 644.0000 1.0000
46.6800 621.0000 1.0000
46.6900 660.0000 1.0000
46.7000 633.0000 1.0000
46.7100 671.0000 1.0000
46.7200 642.0000 1.0000
46.7300 648.0000 1.0000
46.7400 656.0000 1.0000
46.7500 648.0000 1.0000
46.7600 634.0000 1.0000
46.7700 650.0000 1.0000
46.7800 634.0000 1.0000
46.7900 626.0000 1.0000
46.8000 640.0000 1.0000
46.8100 651.0000 1.0000
46.8200 681.0000 1.0000
46.8300 668.0000 1.0000
46.8400 679.0000 1.0000
46.8500 654.0000 1.0000
46.8600 669.0000 1.0000
46.8700 662.0000 1.0000
46.8800 694.0000 1.0000
46.8900 666.0000 1.0000
46.9000 660.0000 1.0000
46.9100 649.0000 1.0000
46.9200 656.0000 1.0000
46.9300 679.0000 1.0000
46.9400 676.0000 1.0000
46.9500 689.0000 1.0000
46.9600 665.0000 1.0000
46.9700 699.0000 1.0000
46.9800 743.0000 1.0000
46.9900 686.0000 1.0000
47.0000 668.0000 1.0000
47.0100 669.0000 1.0000
47.0200 662.0000 1.0000
47.0300 663.0000 1.0000
47.0400 674.0000 1.0000
47.0500 657.0000 1.0000
47.0600 649.0000 1.0000
47.0700 698.0000 1.0000
47.0800 707.0000 1.0000
47.0900 647.0000 1.0000
47.1000 624.0000 1.0000
47.1100 631.0000 1.0000
47.1200 633.0000 1.0000
47.1300 622.0000 1.0000
47.1400 641.0000 1.0000
47.1500 659.0000 1.0000
47.1600 646.0000 1.0000
47.1700 602.0000 1.0000
47.1800 622.0000 1.0000
47.1900 688.0000 1.0000
47.2000 698.0000 1.0000
47.2100 691.0000 1.0000
47.2200 659.0000 1.0000
47.2300 630.0000 1.0000
47.2400 636.0000 1.0000
47.2500 624.0000 1.0000
47.2600 648.0000 1.0000
47.2700 664.0000 1.0000
47.2800 661.0000 1.0000
47.2900 671.0000 1.0000
47.3000 654.0000 1.0000
47.3100 645.0000 1.0000
47.3200 671.0000 1.0000
47.3300 618.0000 1.0000
47.3400 605.0000 1.0000
47.3500 640.0000 1.0000
47.3600 618.0000 1.0000
47.3700 668.0000 1.0000
47.3800 654.0000 1.0000
47.3900 644.0000 1.0000
47.4000 632.0000 1.0000
47.4100 682.0000 1.0000
47.4200 691.0000 1.0000
47.4300 666.0000 1.0000
47.4400 636.0000 1.0000
47.4500 638.0000 1.0000
47.4600 645.0000 1.0000
47.4700 616.0000 1.0000
47.4800 618.0000 1.0000
47.4900 637.0000 1.0000
47.5000 664.0000 1.0000
47.5100 666.0000 1.0000
47.5200 594.0000 1.0000
47.5300 610.0000 1.0000
47.5400 624.0000 1.0000
47.5500 635.0000 1.0000
47.5600 601.0000 1.0000
47.5700 608.0000 1.0000
47.5800 627.0000 1.0000
47.5900 618.0000 1.0000
47.6000 652.0000 1.0000
47.6100 668.0000 1.0000
47.6200 628.0000 1.0000
47.6300 634.0000 1.0000
47.6400 599.0000 1.0000
47.6500 629.0000 1.0000
47.6600 616.0000 1.0000
47.6700 633.0000 1.0000
47.6800 617.0000 1.0000
47.6900 659.0000 1.0000
47.7000 644.0000 1.0000
47.7100 632.0000 1.0000
47.7200 638.0000 1.0000
47.7300 612.0000 1.0000
47.7400 623.0000 1.0000
47.7500 630.0000 1.0000
47.7600 616.0000 1.0000
47.7700 671.0000 1.0000
47.7800 660.0000 1.0000
47.7900 619.0000 1.0000
47.8000 651.0000 1.0000
47.8100 634.0000 1.0000
47.8200 631.0000 1.0000
47.8300 655.0000 1.0000
47.8400 645.0000 1.0000
47.8500 609.0000 1.0000
47.8600 615.0000 1.0000
47.8700 622.0000 1.0000
47.8800 610.0000 1.0000
47.8900 601.0000 1.0000
47.9000 605.0000 1.0000
47.9100 591.0000 1.0000
47.9200 615.0000 1.0000
47.9300 602.0000 1.0000
47.9400 627.0000 1.0000
47.9500 657.0000 1.0000
47.9600 636.0000 1.0000
47.9700 656.0000 1.0000
47.9800 686.0000 1.0000
47.9900 609.0000 1.0000
48.0000 646.0000 1.0000
48.0100 624.0000 1.0000
48.0200 612.0000 1.0000
48.0300 618.0000 1.0000
48.0400 596.0000 1.0000
48.0500 643.0000 1.0000
48.0600 627.0000 1.0000
48.0700 654.0000 1.0000
48.0800 625.0000 1.0000
48.0900 610.0000 1.0000
48.1000 644.0000 1.0000
48.1100 636.0000 1.0000
48.1200 646.0000 1.0000
48.1300 643.0000 1.0000
48.1400 665.0000 1.0000
48.1500 616.0000 1.0000
48.1600 621.0000 1.0000
48.1700 643.0000 1.0000
48.1800 597.0000 1.0000
48.1900 606.0000 1.0000
48.2000 659.0000 1.0000
48.2100 633.0000 1.0000
48.2200 648.0000 1.0000
48.2300 600.0000 1.0000
48.2400 638.0000 1.0000
48.2500 617.0000 1.0000
48.2600 616.0000 1.0000
48.2700 630.0000 1.0000
48.2800 616.0000 1.0000
48.2900 602.0000 1.0000
48.3000 641.0000 1.0000
48.3100 633.0000 1.0000
48.3200 626.0000 1.0000
48.3300 642.0000 1.0000
48.3400 628.0000 1.0000
48.3500 607.0000 1.0000
48.3600 646.0000 1.0000
48.3700 596.0000 1.0000
48.3800 610.0000 1.0000
48.3900 683.0000 1.0000
48.4000 612.0000 1.0000
48.4100 630.0000 1.0000
48.4200 654.0000 1.0000
48.4300 607.0000 1.0000
48.4400 638.0000 1.0000
48.4500 622.0000 1.0000
48.4600 618.0000 1.0000
48.4700 637.0000 1.0000
48.4800 602.0000 1.0000
48.4900 644.0000 1.0000
48.5000 650.0000 1.0000
48.5100 614.0000 1.0000
48.5200 595.0000 1.0000
48.5300 601.0000 1.0000
48.5400 633.0000 1.0000
48.5500 610.0000 1.0000
48.5600 602.0000 1.0000
48.5700 582.0000 1.0000
48.5800 659.0000 1.0000
48.5900 652.0000 1.0000
48.6000 662.0000 1.0000
48.6100 634.0000 1.0000
48.6200 616.0000 1.0000
48.6300 647.0000 1.0000
48.6400 606.0000 1.0000
48.6500 625.0000 1.0000
48.6600 607.0000 1.0000
48.6700 595.0000 1.0000
48.6800 640.0000 1.0000
48.6900 610.0000 1.0000
48.7000 634.0000 1.0000
48.7100 609.0000 1.0000
48.7200 612.0000 1.0000
48.7300 617.0000 1.0000
48.7400 647.0000 1.0000
48.7500 629.0000 1.0000
48.7600 638.0000 1.0000
48.7700 610.0000 1.0000
48.7800 593.0000 1.0000
48.7900 617.0000 1.0000
48.8000 631.0000 1.0000
48.8100 627.0000 1.0000
48.8200 619.0000 1.0000
48.8300 650.0000 1.0000
48.8400 636.0000 1.0000
48.8500 609.0000 1.0000
48.8600 621.0000 1.0000
48.8700 593.0000 1.0000
48.8800 635.0000 1.0000
48.8900 638.0000 1.0000
48.9000 616.0000 1.0000
48.9100 624.0000 1.0000
48.9200 599.0000 1.0000
48.9300 640.0000 1.0000
48.9400 585.0000 1.0000
48.9500 623.0000 1.0000
48.9600 601.0000 1.0000
48.9700 609.0000 1.0000
48.9800 645.0000 1.0000
48.9900 563.0000 1.0000
49.0000 603.0000 1.0000
49.0100 601.0000 1.0000
49.0200 657.0000 1.0000
49.0300 605.0000 1.0000
49.0400 656.0000 1.0000
49.0500 603.0000 1.0000
49.0600 619.0000 1.0000
49.0700 613.0000 1.0000
49.0800 611.0000 1.0000
49.0900 643.0000 1.0000
49.1000 633.0000 1.0000
49.1100 606.0000 1.0000
49.1200 587.0000 1.0000
49.1300 599.0000 1.0000
49.1400 620.0000 1.0000
49.1500 622.0000 1.0000
49.1600 597.0000 1.0000
49.1700 632.0000 1.0000
49.1800 607.0000 1.0000
49.1900 628.0000 1.0000
49.2000 623.0000 1.0000
49.2100 593.0000 1.0000
49.2200 590.0000 1.0000
49.2300 588.0000 1.0000
49.2400 605.0000 1.0000
49.2500 635.0000 1.0000
49.2600 615.0000 1.0000
49.2700 600.0000 1.0000
49.2800 582.0000 1.0000
49.2900 650.0000 1.0000
49.3000 600.0000 1.0000
49.3100 613.0000 1.0000
49.3200 610.0000 1.0000
49.3300 633.0000 1.0000
49.3400 655.0000 1.0000
49.3500 652.0000 1.0000
49.3600 595.0000 1.0000
49.3700 579.0000 1.0000
49.3800 609.0000 1.0000
49.3900 612.0000 1.0000
49.4000 619.0000 1.0000
49.4100 605.0000 1.0000
49.4200 593.0000 1.0000
49.4300 593.0000 1.0000
49.4400 609.0000 1.0000
49.4500 637.0000 1.0000
49.4600 615.0000 1.0000
49.4700 632.0000 1.0000
49.4800 637.0000 1.0000
49.4900 635.0000 1.0000
49.5000 665.0000 1.0000
49.5100 601.0000 1.0000
49.5200 637.0000 1.0000
49.5300 616.0000 1.0000
49.5400 626.0000 1.0000
49.5500 618.0000 1.0000
49.5600 607.0000 1.0000
49.5700 610.0000 1.0000
49.5800 609.0000 1.0000
49.5900 649.0000 1.0000
49.6000 635.0000 1.0000
49.6100 624.0000 1.0000
49.6200 631.0000 1.0000
49.6300 631.0000 1.0000
49.6400 632.0000 1.0000
49.6500 636.0000 1.0000
49.6600 589.0000 1.0000
49.6700 638.0000 1.0000
49.6800 603.0000 1.0000
49.6900 602.0000 1.0000
49.7000 586.0000 1.0000
49.7100 620.0000 1.0000
49.7200 636.0000 1.0000
49.7300 611.0000 1.0000
49.7400 607.0000 1.0000
49.7500 626.0000 1.0000
49.7600 617.0000 1.0000
49.7700 594.0000 1.0000
49.7800 572.0000 1.0000
49.7900 603.0000 1.0000
49.8000 606.0000 1.0000
49.8100 637.0000 1.0000
49.8200 620.0000 1.0000
49.8300 636.0000 1.0000
49.8400 642.0000 1.0000
49.8500 629.0000 1.0000
49.8600 621.0000 1.0000
49.8700 640.0000 1.0000
49.8800 604.0000 1.0000
49.8900 599.0000 1.0000
49.9000 598.0000 1.0000
49.9100 615.0000 1.0000
49.9200 607.0000 1.0000
49.9300 603.0000 1.0000
49.9400 602.0000 1.0000
49.9500 637.0000 1.0000
49.9600 652.0000 1.0000
49.9700 604.0000 1.0000
49.9800 659.0000 1.0000
49.9900 612.0000 1.0000
50.0000 615.0000 1.0000
50.0100 634.0000 1.0000
50.0200 612.0000 1.0000
50.0300 618.0000 1.0000
50.0400 608.0000 1.0000
50.0500 667.0000 1.0000
50.0600 626.0000 1.0000
50.0700 599.0000 1.0000
50.0800 620.0000 1.0000
50.0900 608.0000 1.0000
50.1000 634.0000 1.0000
50.1100 582.0000 1.0000
50.1200 655.0000 1.0000
50.1300 665.0000 1.0000
50.1400 647.0000 1.0000
50.1500 628.0000 1.0000
50.1600 635.0000 1.0000
50.1700 657.0000 1.0000
50.1800 594.0000 1.0000
50.1900 616.0000 1.0000
50.2000 621.0000 1.0000
50.2100 624.0000 1.0000
50.2200 593.0000 1.0000
50.2300 644.0000 1.0000
50.2400 612.0000 1.0000
50.2500 638.0000 1.0000
50.2600 656.0000 1.0000
50.2700 607.0000 1.0000
50.2800 615.0000 1.0000
50.2900 621.0000 1.0000
50.3000 639.0000 1.0000
50.3100 645.0000 1.0000
50.3200 634.0000 1.0000
50.3300 640.0000 1.0000
50.3400 621.0000 1.0000
50.3500 597.0000 1.0000
50.3600 633.0000 1.0000
50.3700 612.0000 1.0000
50.3800 589.0000 1.0000
50.3900 642.0000 1.0000
50.4000 614.0000 1.0000
50.4100 618.0000 1.0000
50.4200 608.0000 1.0000
50.4300 629.0000 1.0000
50.4400 643.0000 1.0000
50.4500 641.0000 1.0000
50.4600 647.0000 1.0000
50.4700 669.0000 1.0000
50.4800 670.0000 1.0000
50.4900 646.0000 1.0000
50.5000 630.0000 1.0000
50.5100 616.0000 1.0000
50.5200 580.0000 1.0000
50.5300 602.0000 1.0000
50.5400 640.0000 1.0000
50.5500 622.0000 1.0000
50.5600 609.0000 1.0000
50.5700 624.0000 1.0000
50.5800 665.0000 1.0000
50.5900 637.0000 1.0000
50.6000 623.0000 1.0000
50.6100 655.0000 1.0000
50.6200 639.0000 1.0000
50.6300 633.0000 1.0000
50.6400 627.0000 1.0000
50.6500 653.0000 1.0000
50.6600 632.0000 1.0000
50.6700 629.0000 1.0000
50.6800 645.0000 1.0000
50.6900 609.0000 1.0000
50.7000 621.0000 1.0000
50.7100 607.0000 1.0000
50.7200 611.0000 1.0000
50.7300 612.0000 1.0000
50.7400 623.0000 1.0000
50.7500 654.0000 1.0000
50.7600 610.0000 1.0000
50.7700 640.0000 1.0000
50.7800 653.0000 1.0000
50.7900 614.0000 1.0000
50.8000 650.0000 1.0000
50.8100 615.0000 1.0000
50.8200 640.0000 1.0000
50.8300 603.0000 1.0000
50.8400 656.0000 1.0000
50.8500 607.0000 1.0000
50.8600 612.0000 1.0000
50.8700 635.0000 1.0000
50.8800 656.0000 1.0000
50.8900 626.0000 1.0000
50.9000 648.0000 1.0000
50.9100 635.0000 1.0000
50.9200 631.0000 1.0000
50.9300 666.0000 1.0000
50.9400 668.0000 1.0000
50.9500 629.0000 1.0000
50.9600 626.0000 1.0000
50.9700 608.0000 1.0000
50.9800 591.0000 1.0000
50.9900 610.0000 1.0000
51.0000 620.0000 1.0000
51.0100 631.0000 1.0000
51.0200 571.0000 1.0000
51.0300 649.0000 1.0000
51.0400 656.0000 1.0000
51.0500 608.0000 1.0000
51.0600 617.0000 1.0000
51.0700 605.0000 1.0000
51.0800 592.0000 1.0000
51.0900 605.0000 1.0000
51.1000 619.0000 1.0000
51.1100 664.0000 1.0000
51.1200 617.0000 1.0000
51.1300 671.0000 1.0000
51.1400 617.0000 1.0000
51.1500 578.0000 1.0000
51.1600 646.0000 1.0000
51.1700 615.0000 1.0000
51.1800 622.0000 1.0000
51.1900 595.0000 1.0000
51.2000 647.0000 1.0000
51.2100 642.0000 1.0000
51.2200 630.0000 1.0000
51.2300 660.0000 1.0000
51.2400 617.0000 1.0000
51.2500 621.0000 1.0000
51.2600 623.0000 1.0000
51.2700 631.0000 1.0000
51.2800 654.0000 1.0000
51.2900 642.0000 1.0000
51.3000 632.0000 1.0000
51.3100 624.0000 1.0000
51.3200 639.0000 1.0000
51.3300 656.0000 1.0000
51.3400 632.0000 1.0000
51.3500 659.0000 1.0000
51.3600 638.0000 1.0000
51.3700 648.0000 1.0000
51.3800 637.0000 1.0000
51.3900 627.0000 1.0000
51.4000 601.0000 1.0000
51.4100 643.0000 1.0000
51.4200 619.0000 1.0000
51.4300 664.0000 1.0000
51.4400 624.0000 1.0000
51.4500 594.0000 1.0000
51.4600 639.0000 1.0000
51.4700 619.0000 1.0000
51.4800 668.0000 1.0000
51.4900 627.0000 1.0000
51.5000 644.0000 1.0000
51.5100 641.0000 1.0000
51.5200 614.0000 1.0000
51.5300 654.0000 1.0000
51.5400 620.0000 1.0000
51.5500 636.0000 1.0000
51.5600 668.0000 1.0000
51.5700 613.0000 1.0000
51.5800 627.0000 1.0000
51.5900 604.0000 1.0000
51.6000 681.0000 1.0000
51.6100 682.0000 1.0000
51.6200 664.0000 1.0000
51.6300 623.0000 1.0000
51.6400 692.0000 1.0000
51.6500 700.0000 1.0000
51.6600 667.0000 1.0000
51.6700 651.0000 1.0000
51.6800 732.0000 1.0000
51.6900 710.0000 1.0000
51.7000 697.0000 1.0000
51.7100 642.0000 1.0000
51.7200 685.0000 1.0000
51.7300 708.0000 1.0000
51.7400 692.0000 1.0000
51.7500 714.0000 1.0000
51.7600 685.0000 1.0000
51.7700 731.0000 1.0000
51.7800 740.0000 1.0000
51.7900 748.0000 1.0000
51.8000 731.0000 1.0000
51.8100 755.0000 1.0000
51.8200 764.0000 1.0000
51.8300 735.0000 1.0000
51.8400 754.0000 1.0000
51.8500 776.0000 1.0000
51.8600 771.0000 1.0000
51.8700 790.0000 1.0000
51.8800 808.0000 1.0000
51.8900 833.0000 1.0000
51.9000 862.0000 1.0000
51.9100 889.0000 1.0000
51.9200 889.0000 1.0000
51.9300 916.0000 1.0000
51.9400 961.0000 1.0000
51.9500 953.0000 1.0000
51.9600 1003.0000 1.0000
51.9700 1018.0000 1.0000
51.9800 1099.0000 1.0000
51.9900 1107.0000 1.0000
52.0000 1163.0000 1.0000
52.0100 1182.0000 1.0000
52.0200 1188.0000 1.0000
52.0300 1262.0000 1.0000
52.0400 1341.0000 1.0000
52.0500 1388.0000 1.0000
52.0600 1442.0000 1.0000
52.0700 1603.0000 1.0000
52.0800 1707.0000 1.0000
52.0900 1768.0000 1.0000
52.1000 1988.0000 1.0000
52.1100 2066.0000 1.0000
52.1200 2249.0000 1.0000
52.1300 2468.0000 1.0000
52.1400 2618.0000 1.0000
52.1500 2909.0000 1.0000
52.1600 3112.0000 1.0000
52.1700 3398.0000 1.0000
52.1800 3671.0000 1.0000
52.1900 3981.0000 1.0000
52.2000 4183.0000 1.0000
52.2100 4367.0000 1.0000
52.2200 4492.0000 1.0000
52.2300 4485.0000 1.0000
52.2400 4649.0000 1.0000
52.2500 4472.0000 1.0000
52.2600 4343.0000 1.0000
52.2700 4298.0000 1.0000
52.2800 4091.0000 1.0000
52.2900 4021.0000 1.0000
52.3000 3898.0000 1.0000
52.3100 3762.0000 1.0000
52.3200 3776.0000 1.0000
52.3300 3664.0000 1.0000
52.3400 3539.0000 1.0000
52.3500 3395.0000 1.0000
52.3600 3382.0000 1.0000
52.3700 3356.0000 1.0000
52.3800 3140.0000 1.0000
52.3900 3032.0000 1.0000
52.4000 2851.0000 1.0000
52.4100 2804.0000 1.0000
52.4200 2439.0000 1.0000
52.4300 2253.0000 1.0000
52.4400 2136.0000 1.0000
52.4500 1912.0000 1.0000
52.4600 1899.0000 1.0000
52.4700 1750.0000 1.0000
52.4800 1625.0000 1.0000
52.4900 1507.0000 1.0000
52.5000 1469.0000 1.0000
52.5100 1416.0000 1.0000
52.5200 1353.0000 1.0000
52.5300 1289.0000 1.0000
52.5400 1197.0000 1.0000
52.5500 1205.0000 1.0000
52.5600 1163.0000 1.0000
52.5700 1084.0000 1.0000
52.5800 1044.0000 1.0000
52.5900 1022.0000 1.0000
52.6000 947.0000 1.0000
52.6100 960.0000 1.0000
52.6200 962.0000 1.0000
52.6300 946.0000 1.0000
52.6400 908.0000 1.0000
52.6500 898.0000 1.0000
52.6600 895.0000 1.0000
52.6700 829.0000 1.0000
52.6800 873.0000 1.0000
52.6900 810.0000 1.0000
52.7000 823.0000 1.0000
52.7100 847.0000 1.0000
52.7200 827.0000 1.0000
52.7300 768.0000 1.0000
52.7400 777.0000 1.0000
52.7500 748.0000 1.0000
52.7600 741.0000 1.0000
52.7700 739.0000 1.0000
52.7800 719.0000 1.0000
52.7900 742.0000 1.0000
52.8000 766.0000 1.0000
52.8100 725.0000 1.0000
52.8200 693.0000 1.0000
52.8300 762.0000 1.0000
52.8400 699.0000 1.0000
52.8500 671.0000 1.0000
52.8600 675.0000 1.0000
52.8700 667.0000 1.0000
52.8800 702.0000 1.0000
52.8900 709.0000 1.0000
52.9000 725.0000 1.0000
52.9100 704.0000 1.0000
52.9200 697.0000 1.0000
52.9300 662.0000 1.0000
52.9400 669.0000 1.0000
52.9500 694.0000 1.0000
52.9600 695.0000 1.0000
52.9700 687.0000 1.0000
52.9800 698.0000 1.0000
52.9900 657.0000 1.0000
53.0000 650.0000 1.0000
53.0100 646.0000 1.0000
53.0200 622.0000 1.0000
53.0300 650.0000 1.0000
53.0400 653.0000 1.0000
53.0500 656.0000 1.0000
53.0600 668.0000 1.0000
53.0700 671.0000 1.0000
53.0800 624.0000 1.0000
53.0900 631.0000 1.0000
53.1000 649.0000 1.0000
53.1100 640.0000 1.0000
53.1200 649.0000 1.0000
53.1300 629.0000 1.0000
53.1400 632.0000 1.0000
53.1500 606.0000 1.0000
53.1600 609.0000 1.0000
53.1700 606.0000 1.0000
53.1800 649.0000 1.0000
53.1900 667.0000 1.0000
53.2000 617.0000 1.0000
53.2100 643.0000 1.0000
53.2200 655.0000 1.0000
53.2300 630.0000 1.0000
53.2400 667.0000 1.0000
53.2500 626.0000 1.0000
53.2600 626.0000 1.0000
53.2700 614.0000 1.0000
53.2800 644.0000 1.0000
53.2900 613.0000 1.0000
53.3000 622.0000 1.0000
53.3100 611.0000 1.0000
53.3200 673.0000 1.0000
53.3300 672.0000 1.0000
53.3400 621.0000 1.0000
53.3500 602.0000 1.0000
53.3600 643.0000 1.0000
53.3700 615.0000 1.0000
53.3800 635.0000 1.0000
53.3900 637.0000 1.0000
53.4000 658.0000 1.0000
53.4100 624.0000 1.0000
53.4200 610.0000 1.0000
53.4300 616.0000 1.0000
53.4400 625.0000 1.0000
53.4500 662.0000 1.0000
53.4600 601.0000 1.0000
53.4700 613.0000 1.0000
53.4800 611.0000 1.0000
53.4900 612.0000 1.0000
53.5000 617.0000 1.0000
53.5100 592.0000 1.0000
53.5200 628.0000 1.0000
53.5300 631.0000 1.0000
53.5400 626.0000 1.0000
53.5500 605.0000 1.0000
53.5600 627.0000 1.0000
53.5700 660.0000 1.0000
53.5800 626.0000 1.0000
53.5900 602.0000 1.0000
53.6000 625.0000 1.0000
53.6100 600.0000 1.0000
53.6200 577.0000 1.0000
53.6300 585.0000 1.0000
53.6400 628.0000 1.0000
53.6500 583.0000 1.0000
53.6600 608.0000 1.0000
53.6700 606.0000 1.0000
53.6800 622.0000 1.0000
53.6900 566.0000 1.0000
53.7000 583.0000 1.0000
53.7100 584.0000 1.0000
53.7200 595.0000 1.0000
53.7300 561.0000 1.0000
53.7400 610.0000 1.0000
53.7500 623.0000 1.0000
53.7600 567.0000 1.0000
53.7700 610.0000 1.0000
53.7800 633.0000 1.0000
53.7900 619.0000 1.0000
53.8000 573.0000 1.0000
53.8100 616.0000 1.0000
53.8200 600.0000 1.0000
53.8300 627.0000 1.0000
53.8400 623.0000 1.0000
53.8500 627.0000 1.0000
53.8600 611.0000 1.0000
53.8700 628.0000 1.0000
53.8800 588.0000 1.0000
53.8900 580.0000 1.0000
53.9000 581.0000 1.0000
53.9100 597.0000 1.0000
53.9200 608.0000 1.0000
53.9300 591.0000 1.0000
53.9400 562.0000 1.0000
53.9500 623.0000 1.0000
53.9600 603.0000 1.0000
53.9700 570.0000 1.0000
53.9800 590.0000 1.0000
53.9900 607.0000 1.0000
54.0000 624.0000 1.0000
54.0100 574.0000 1.0000
54.0200 591.0000 1.0000
54.0300 632.0000 1.0000
54.0400 624.0000 1.0000
54.0500 606.0000 1.0000
54.0600 591.0000 1.0000
54.0700 586.0000 1.0000
54.0800 592.0000 1.0000
54.0900 592.0000 1.0000
54.1000 605.0000 1.0000
54.1100 625.0000 1.0000
54.1200 632.0000 1.0000
54.1300 637.0000 1.0000
54.1400 629.0000 1.0000
54.1500 621.0000 1.0000
54.1600 619.0000 1.0000
54.1700 606.0000 1.0000
54.1800 604.0000 1.0000
54.1900 591.0000 1.0000
54.2000 606.0000 1.0000
54.2100 585.0000 1.0000
54.2200 605.0000 1.0000
54.2300 605.0000 1.0000
54.2400 633.0000 1.0000
54.2500 605.0000 1.0000
54.2600 615.0000 1.0000
54.2700 609.0000 1.0000
54.2800 615.0000 1.0000
54.2900 629.0000 1.0000
54.3000 623.0000 1.0000
54.3100 591.0000 1.0000
54.3200 566.0000 1.0000
54.3300 596.0000 1.0000
54.3400 601.0000 1.0000
54.3500 616.0000 1.0000
54.3600 616.0000 1.0000
54.3700 631.0000 1.0000
54.3800 666.0000 1.0000
54.3900 649.0000 1.0000
54.4000 657.0000 1.0000
54.4100 615.0000 1.0000
54.4200 610.0000 1.0000
54.4300 596.0000 1.0000
54.4400 637.0000 1.0000
54.4500 647.0000 1.0000
54.4600 656.0000 1.0000
54.4700 605.0000 1.0000
54.4800 640.0000 1.0000
54.4900 611.0000 1.0000
54.5000 611.0000 1.0000
54.5100 602.0000 1.0000
54.5200 607.0000 1.0000
54.5300 617.0000 1.0000
54.5400 603.0000 1.0000
54.5500 621.0000 1.0000
54.5600 607.0000 1.0000
54.5700 625.0000 1.0000
54.5800 657.0000 1.0000
54.5900 650.0000 1.0000
54.6000 625.0000 1.0000
54.6100 634.0000 1.0000
54.6200 658.0000 1.0000
54.6300 676.0000 1.0000
54.6400 653.0000 1.0000
54.6500 647.0000 1.0000
54.6600 670.0000 1.0000
54.6700 644.0000 1.0000
54.6800 663.0000 1.0000
54.6900 627.0000 1.0000
54.7000 699.0000 1.0000
54.7100 673.0000 1.0000
54.7200 630.0000 1.0000
54.7300 667.0000 1.0000
54.7400 630.0000 1.0000
54.7500 659.0000 1.0000
54.7600 687.0000 1.0000
54.7700 677.0000 1.0000
54.7800 625.0000 1.0000
54.7900 689.0000 1.0000
54.8000 658.0000 1.0000
54.8100 621.0000 1.0000
54.8200 621.0000 1.0000
54.8300 652.0000 1.0000
54.8400 672.0000 1.0000
54.8500 644.0000 1.0000
54.8600 669.0000 1.0000
54.8700 678.0000 1.0000
54.8800 694.0000 1.0000
54.8900 677.0000 1.0000
54.9000 651.0000 1.0000
54.9100 693.0000 1.0000
54.9200 674.0000 1.0000
54.9300 709.0000 1.0000
54.9400 703.0000 1.0000
54.9500 695.0000 1.0000
54.9600 692.0000 1.0000
54.9700 688.0000 1.0000
54.9800 714.0000 1.0000
54.9900 694.0000 1.0000
55.0000 728.0000 1.0000
55.0100 712.0000 1.0000
55.0200 718.0000 1.0000
55.0300 722.0000 1.0000
55.0400 770.0000 1.0000
55.0500 750.0000 1.0000
55.0600 715.0000 1.0000
55.0700 703.0000 1.0000
55.0800 729.0000 1.0000
55.0900 744.0000 1.0000
55.1000 779.0000 1.0000
55.1100 783.0000 1.0000
55.1200 786.0000 1.0000
55.1300 776.0000 1.0000
55.1400 815.0000 1.0000
55.1500 874.0000 1.0000
55.1600 884.0000 1.0000
55.1700 874.0000 1.0000
55.1800 863.0000 1.0000
55.1900 921.0000 1.0000
55.2000 893.0000 1.0000
55.2100 921.0000 1.0000
55.2200 915.0000 1.0000
55.2300 995.0000 1.0000
55.2400 988.0000 1.0000
55.2500 967.0000 1.0000
55.2600 991.0000 1.0000
55.2700 945.0000 1.0000
55.2800 963.0000 1.0000
55.2900 959.0000 1.0000
55.3000 976.0000 1.0000
55.3100 938.0000 1.0000
55.3200 943.0000 1.0000
55.3300 929.0000 1.0000
55.3400 903.0000 1.0000
55.3500 918.0000 1.0000
55.3600 932.0000 1.0000
55.3700 913.0000 1.0000
55.3800 890.0000 1.0000
55.3900 920.0000 1.0000
55.4000 902.0000 1.0000
55.4100 814.0000 1.0000
55.4200 855.0000 1.0000
55.4300 816.0000 1.0000
55.4400 850.0000 1.0000
55.4500 830.0000 1.0000
55.4600 795.0000 1.0000
55.4700 783.0000 1.0000
55.4800 759.0000 1.0000
55.4900 745.0000 1.0000
55.5000 742.0000 1.0000
55.5100 744.0000 1.0000
55.5200 703.0000 1.0000
55.5300 674.0000 1.0000
55.5400 689.0000 1.0000
55.5500 671.0000 1.0000
55.5600 684.0000 1.0000
55.5700 707.0000 1.0000
55.5800 691.0000 1.0000
55.5900 638.0000 1.0000
55.6000 673.0000 1.0000
55.6100 677.0000 1.0000
55.6200 625.0000 1.0000
55.6300 647.0000 1.0000
55.6400 651.0000 1.0000
55.6500 619.0000 1.0000
55.6600 644.0000 1.0000
55.6700 638.0000 1.0000
55.6800 637.0000 1.0000
55.6900 647.0000 1.0000
55.7000 607.0000 1.0000
55.7100 615.0000 1.0000
55.7200 648.0000 1.0000
55.7300 632.0000 1.0000
55.7400 621.0000 1.0000
55.7500 627.0000 1.0000
55.7600 627.0000 1.0000
55.7700 620.0000 1.0000
55.7800 620.0000 1.0000
55.7900 638.0000 1.0000
55.8000 600.0000 1.0000
55.8100 601.0000 1.0000
55.8200 615.0000 1.0000
55.8300 612.0000 1.0000
55.8400 606.0000 1.0000
55.8500 572.0000 1.0000
55.8600 582.0000 1.0000
55.8700 607.0000 1.0000
55.8800 633.0000 1.0000
55.8900 607.0000 1.0000
55.9000 618.0000 1.0000
55.9100 632.0000 1.0000
55.9200 637.0000 1.0000
55.9300 628.0000 1.0000
55.9400 603.0000 1.0000
55.9500 572.0000 1.0000
55.9600 653.0000 1.0000
55.9700 623.0000 1.0000
55.9800 627.0000 1.0000
55.9900 588.0000 1.0000
56.0000 595.0000 1.0000
56.0100 624.0000 1.0000
56.0200 580.0000 1.0000
56.0300 604.0000 1.0000
56.0400 590.0000 1.0000
56.0500 600.0000 1.0000
56.0600 590.0000 1.0000
56.0700 601.0000 1.0000
56.0800 554.0000 1.0000
56.0900 607.0000 1.0000
56.1000 585.0000 1.0000
56.1100 607.0000 1.0000
56.1200 618.0000 1.0000
56.1300 564.0000 1.0000
56.1400 600.0000 1.0000
56.1500 591.0000 1.0000
56.1600 608.0000 1.0000
56.1700 622.0000 1.0000
56.1800 614.0000 1.0000
56.1900 567.0000 1.0000
56.2000 609.0000 1.0000
56.2100 585.0000 1.0000
56.2200 584.0000 1.0000
56.2300 604.0000 1.0000
56.2400 596.0000 1.0000
56.2500 591.0000 1.0000
56.2600 603.0000 1.0000
56.2700 599.0000 1.0000
56.2800 582.0000 1.0000
56.2900 563.0000 1.0000
56.3000 557.0000 1.0000
56.3100 580.0000 1.0000
56.3200 617.0000 1.0000
56.3300 577.0000 1.0000
56.3400 585.0000 1.0000
56.3500 647.0000 1.0000
56.3600 579.0000 1.0000
56.3700 605.0000 1.0000
56.3800 586.0000 1.0000
56.3900 584.0000 1.0000
56.4000 635.0000 1.0000
56.4100 542.0000 1.0000
56.4200 587.0000 1.0000
56.4300 606.0000 1.0000
56.4400 604.0000 1.0000
56.4500 582.0000 1.0000
56.4600 581.0000 1.0000
56.4700 638.0000 1.0000
56.4800 619.0000 1.0000
56.4900 569.0000 1.0000
56.5000 564.0000 1.0000
56.5100 556.0000 1.0000
56.5200 608.0000 1.0000
56.5300 587.0000 1.0000
56.5400 576.0000 1.0000
56.5500 580.0000 1.0000
56.5600 568.0000 1.0000
56.5700 623.0000 1.0000
56.5800 592.0000 1.0000
56.5900 579.0000 1.0000
56.6000 607.0000 1.0000
56.6100 612.0000 1.0000
56.6200 606.0000 1.0000
56.6300 622.0000 1.0000
56.6400 599.0000 1.0000
56.6500 591.0000 1.0000
56.6600 568.0000 1.0000
56.6700 617.0000 1.0000
56.6800 611.0000 1.0000
56.6900 580.0000 1.0000
56.7000 577.0000 1.0000
56.7100 611.0000 1.0000
56.7200 636.0000 1.0000
56.7300 625.0000 1.0000
56.7400 549.0000 1.0000
56.7500 585.0000 1.0000
56.7600 577.0000 1.0000
56.7700 608.0000 1.0000
56.7800 606.0000 1.0000
56.7900 578.0000 1.0000
56.8000 618.0000 1.0000
56.8100 578.0000 1.0000
56.8200 618.0000 1.0000
56.8300 577.0000 1.0000
56.8400 586.0000 1.0000
56.8500 574.0000 1.0000
56.8600 602.0000 1.0000
56.8700 552.0000 1.0000
56.8800 629.0000 1.0000
56.8900 598.0000 1.0000
56.9000 601.0000 1.0000
56.9100 568.0000 1.0000
56.9200 593.0000 1.0000
56.9300 606.0000 1.0000
56.9400 586.0000 1.0000
56.9500 576.0000 1.0000
56.9600 577.0000 1.0000
56.9700 568.0000 1.0000
56.9800 622.0000 1.0000
56.9900 592.0000 1.0000
57.0000 629.0000 1.0000
57.0100 585.0000 1.0000
57.0200 561.0000 1.0000
57.0300 567.0000 1.0000
57.0400 548.0000 1.0000
57.0500 590.0000 1.0000
57.0600 590.0000 1.0000
57.0700 589.0000 1.0000
57.0800 610.0000 1.0000
57.0900 613.0000 1.0000
57.1000 620.0000 1.0000
57.1100 591.0000 1.0000
57.1200 585.0000 1.0000
57.1300 556.0000 1.0000
57.1400 549.0000 1.0000
57.1500 572.0000 1.0000
57.1600 597.0000 1.0000
57.1700 609.0000 1.0000
57.1800 569.0000 1.0000
57.1900 608.0000 1.0000
57.2000 597.0000 1.0000
57.2100 587.0000 1.0000
57.2200 596.0000 1.0000
57.2300 553.0000 1.0000
57.2400 563.0000 1.0000
57.2500 591.0000 1.0000
57.2600 562.0000 1.0000
57.2700 588.0000 1.0000
57.2800 567.0000 1.0000
57.2900 596.0000 1.0000
57.3000 560.0000 1.0000
57.3100 576.0000 1.0000
57.3200 602.0000 1.0000
57.3300 582.0000 1.0000
57.3400 576.0000 1.0000
57.3500 553.0000 1.0000
57.3600 560.0000 1.0000
57.3700 586.0000 1.0000
57.3800 603.0000 1.0000
57.3900 604.0000 1.0000
57.4000 582.0000 1.0000
57.4100 591.0000 1.0000
57.4200 563.0000 1.0000
57.4300 567.0000 1.0000
57.4400 546.0000 1.0000
57.4500 568.0000 1.0000
57.4600 572.0000 1.0000
57.4700 595.0000 1.0000
57.4800 573.0000 1.0000
57.4900 605.0000 1.0000
57.5000 604.0000 1.0000
57.5100 613.0000 1.0000
57.5200 611.0000 1.0000
57.5300 565.0000 1.0000
57.5400 582.0000 1.0000
57.5500 538.0000 1.0000
57.5600 576.0000 1.0000
57.5700 590.0000 1.0000
57.5800 582.0000 1.0000
57.5900 574.0000 1.0000
57.6000 580.0000 1.0000
57.6100 588.0000 1.0000
57.6200 590.0000 1.0000
57.6300 557.0000 1.0000
57.6400 587.0000 1.0000
57.6500 560.0000 1.0000
57.6600 557.0000 1.0000
57.6700 563.0000 1.0000
57.6800 554.0000 1.0000
57.6900 560.0000 1.0000
57.7000 604.0000 1.0000
57.7100 588.0000 1.0000
57.7200 587.0000 1.0000
57.7300 563.0000 1.0000
57.7400 587.0000 1.0000
57.7500 575.0000 1.0000
57.7600 576.0000 1.0000
57.7700 589.0000 1.0000
57.7800 580.0000 1.0000
57.7900 573.0000 1.0000
57.8000 574.0000 1.0000
57.8100 567.0000 1.0000
57.8200 603.0000 1.0000
57.8300 553.0000 1.0000
57.8400 599.0000 1.0000
57.8500 546.0000 1.0000
57.8600 580.0000 1.0000
57.8700 614.0000 1.0000
57.8800 570.0000 1.0000
57.8900 545.0000 1.0000
57.9000 587.0000 1.0000
57.9100 629.0000 1.0000
57.9200 580.0000 1.0000
57.9300 571.0000 1.0000
57.9400 598.0000 1.0000
57.9500 609.0000 1.0000
57.9600 584.0000 1.0000
57.9700 588.0000 1.0000
57.9800 587.0000 1.0000
57.9900 581.0000 1.0000
58.0000 601.0000 1.0000
58.0100 591.0000 1.0000
58.0200 565.0000 1.0000
58.0300 584.0000 1.0000
58.0400 619.0000 1.0000
58.0500 633.0000 1.0000
58.0600 569.0000 1.0000
58.0700 551.0000 1.0000
58.0800 592.0000 1.0000
58.0900 578.0000 1.0000
58.1000 566.0000 1.0000
58.1100 584.0000 1.0000
58.1200 623.0000 1.0000
58.1300 633.0000 1.0000
58.1400 607.0000 1.0000
58.1500 625.0000 1.0000
58.1600 610.0000 1.0000
58.1700 585.0000 1.0000
58.1800 548.0000 1.0000
58.1900 606.0000 1.0000
58.2000 602.0000 1.0000
58.2100 613.0000 1.0000
58.2200 614.0000 1.0000
58.2300 625.0000 1.0000
58.2400 620.0000 1.0000
58.2500 604.0000 1.0000
58.2600 548.0000 1.0000
58.2700 644.0000 1.0000
58.2800 591.0000 1.0000
58.2900 580.0000 1.0000
58.3000 598.0000 1.0000
58.3100 576.0000 1.0000
58.3200 573.0000 1.0000
58.3300 583.0000 1.0000
58.3400 584.0000 1.0000
58.3500 577.0000 1.0000
58.3600 600.0000 1.0000
58.3700 615.0000 1.0000
58.3800 589.0000 1.0000
58.3900 582.0000 1.0000
58.4000 572.0000 1.0000
58.4100 551.0000 1.0000
58.4200 603.0000 1.0000
58.4300 577.0000 1.0000
58.4400 594.0000 1.0000
58.4500 592.0000 1.0000
58.4600 585.0000 1.0000
58.4700 574.0000 1.0000
58.4800 584.0000 1.0000
58.4900 588.0000 1.0000
58.5000 568.0000 1.0000
58.5100 593.0000 1.0000
58.5200 593.0000 1.0000
58.5300 577.0000 1.0000
58.5400 569.0000 1.0000
58.5500 607.0000 1.0000
58.5600 583.0000 1.0000
58.5700 546.0000 1.0000
58.5800 587.0000 1.0000
58.5900 556.0000 1.0000
58.6000 554.0000 1.0000
58.6100 606.0000 1.0000
58.6200 586.0000 1.0000
58.6300 583.0000 1.0000
58.6400 554.0000 1.0000
58.6500 562.0000 1.0000
58.6600 553.0000 1.0000
58.6700 550.0000 1.0000
58.6800 595.0000 1.0000
58.6900 603.0000 1.0000
58.7000 572.0000 1.0000
58.7100 582.0000 1.0000
58.7200 540.0000 1.0000
58.7300 590.0000 1.0000
58.7400 574.0000 1.0000
58.7500 560.0000 1.0000
58.7600 555.0000 1.0000
58.7700 549.0000 1.0000
58.7800 589.0000 1.0000
58.7900 555.0000 1.0000
58.8000 582.0000 1.0000
58.8100 574.0000 1.0000
58.8200 584.0000 1.0000
58.8300 587.0000 1.0000
58.8400 609.0000 1.0000
58.8500 583.0000 1.0000
58.8600 607.0000 1.0000
58.8700 565.0000 1.0000
58.8800 550.0000 1.0000
58.8900 558.0000 1.0000
58.9000 587.0000 1.0000
58.9100 588.0000 1.0000
58.9200 594.0000 1.0000
58.9300 616.0000 1.0000
58.9400 584.0000 1.0000
58.9500 578.0000 1.0000
58.9600 560.0000 1.0000
58.9700 590.0000 1.0000
58.9800 579.0000 1.0000
58.9900 583.0000 1.0000
59.0000 553.0000 1.0000
59.0100 602.0000 1.0000
59.0200 588.0000 1.0000
59.0300 568.0000 1.0000
59.0400 599.0000 1.0000
59.0500 582.0000 1.0000
59.0600 614.0000 1.0000
59.0700 573.0000 1.0000
59.0800 592.0000 1.0000
59.0900 617.0000 1.0000
59.1000 593.0000 1.0000
59.1100 569.0000 1.0000
59.1200 590.0000 1.0000
59.1300 582.0000 1.0000
59.1400 588.0000 1.0000
59.1500 581.0000 1.0000
59.1600 575.0000 1.0000
59.1700 553.0000 1.0000
59.1800 563.0000 1.0000
59.1900 584.0000 1.0000
59.2000 562.0000 1.0000
59.2100 569.0000 1.0000
59.2200 571.0000 1.0000
59.2300 572.0000 1.0000
59.2400 583.0000 1.0000
59.2500 574.0000 1.0000
59.2600 589.0000 1.0000
59.2700 595.0000 1.0000
59.2800 572.0000 1.0000
59.2900 559.0000 1.0000
59.3000 605.0000 1.0000
59.3100 614.0000 1.0000
59.3200 544.0000 1.0000
59.3300 570.0000 1.0000
59.3400 625.0000 1.0000
59.3500 569.0000 1.0000
59.3600 554.0000 1.0000
59.3700 574.0000 1.0000
59.3800 600.0000 1.0000
59.3900 534.0000 1.0000
59.4000 600.0000 1.0000
59.4100 579.0000 1.0000
59.4200 606.0000 1.0000
59.4300 581.0000 1.0000
59.4400 593.0000 1.0000
59.4500 603.0000 1.0000
59.4600 564.0000 1.0000
59.4700 584.0000 1.0000
59.4800 620.0000 1.0000
59.4900 616.0000 1.0000
59.5000 602.0000 1.0000
59.5100 598.0000 1.0000
59.5200 570.0000 1.0000
59.5300 571.0000 1.0000
59.5400 613.0000 1.0000
59.5500 605.0000 1.0000
59.5600 557.0000 1.0000
59.5700 554.0000 1.0000
59.5800 576.0000 1.0000
59.5900 605.0000 1.0000
59.6000 623.0000 1.0000
59.6100 595.0000 1.0000
59.6200 584.0000 1.0000
59.6300 600.0000 1.0000
59.6400 539.0000 1.0000
59.6500 601.0000 1.0000
59.6600 626.0000 1.0000
59.6700 624.0000 1.0000
59.6800 591.0000 1.0000
59.6900 589.0000 1.0000
59.7000 583.0000 1.0000
59.7100 581.0000 1.0000
59.7200 595.0000 1.0000
59.7300 566.0000 1.0000
59.7400 574.0000 1.0000
59.7500 619.0000 1.0000
59.7600 582.0000 1.0000
59.7700 564.0000 1.0000
59.7800 572.0000 1.0000
59.7900 583.0000 1.0000
59.8000 601.0000 1.0000
59.8100 580.0000 1.0000
59.8200 527.0000 1.0000
59.8300 578.0000 1.0000
59.8400 559.0000 1.0000
59.8500 562.0000 1.0000
59.8600 585.0000 1.0000
59.8700 581.0000 1.0000
59.8800 561.0000 1.0000
59.8900 574.0000 1.0000
59.9000 587.0000 1.0000
59.9100 579.0000 1.0000
59.9200 574.0000 1.0000
59.9300 595.0000 1.0000
59.9400 603.0000 1.0000
59.9500 598.0000 1.0000
59.9600 562.0000 1.0000
59.9700 620.0000 1.0000
59.9800 597.0000 1.0000
59.9900 586.0000 1.0000
60.0000 535.0000 1.0000
60.0100 578.0000 1.0000
60.0200 586.0000 1.0000
60.0300 582.0000 1.0000
60.0400 564.0000 1.0000
60.0500 601.0000 1.0000
60.0600 596.0000 1.0000
60.0700 581.0000 1.0000
60.0800 583.0000 1.0000
60.0900 594.0000 1.0000
60.1000 596.0000 1.0000
60.1100 592.0000 1.0000
60.1200 572.0000 1.0000
60.1300 599.0000 1.0000
60.1400 583.0000 1.0000
60.1500 591.0000 1.0000
60.1600 577.0000 1.0000
60.1700 571.0000 1.0000
60.1800 591.0000 1.0000
60.1900 577.0000 1.0000
60.2000 576.0000 1.0000
60.2100 611.0000 1.0000
60.2200 537.0000 1.0000
60.2300 551.0000 1.0000
60.2400 579.0000 1.0000
60.2500 578.0000 1.0000
60.2600 575.0000 1.0000
60.2700 579.0000 1.0000
60.2800 596.0000 1.0000
60.2900 548.0000 1.0000
60.3000 586.0000 1.0000
60.3100 576.0000 1.0000
60.3200 574.0000 1.0000
60.3300 593.0000 1.0000
60.3400 575.0000 1.0000
60.3500 556.0000 1.0000
60.3600 566.0000 1.0000
60.3700 532.0000 1.0000
60.3800 578.0000 1.0000
60.3900 583.0000 1.0000
60.4000 590.0000 1.0000
60.4100 593.0000 1.0000
60.4200 579.0000 1.0000
60.4300 603.0000 1.0000
60.4400 613.0000 1.0000
60.4500 570.0000 1.0000
60.4600 598.0000 1.0000
60.4700 623.0000 1.0000
60.4800 585.0000 1.0000
60.4900 577.0000 1.0000
60.5000 564.0000 1.0000
60.5100 579.0000 1.0000
60.5200 545.0000 1.0000
60.5300 608.0000 1.0000
60.5400 593.0000 1.0000
60.5500 579.0000 1.0000
60.5600 553.0000 1.0000
60.5700 573.0000 1.0000
60.5800 526.0000 1.0000
60.5900 578.0000 1.0000
60.6000 581.0000 1.0000
60.6100 565.0000 1.0000
60.6200 578.0000 1.0000
60.6300 582.0000 1.0000
60.6400 562.0000 1.0000
60.6500 559.0000 1.0000
60.6600 572.0000 1.0000
60.6700 577.0000 1.0000
60.6800 544.0000 1.0000
60.6900 577.0000 1.0000
60.7000 546.0000 1.0000
60.7100 585.0000 1.0000
60.7200 599.0000 1.0000
60.7300 586.0000 1.0000
60.7400 580.0000 1.0000
60.7500 577.0000 1.0000
60.7600 612.0000 1.0000
60.7700 591.0000 1.0000
60.7800 609.0000 1.0000
60.7900 626.0000 1.0000
60.8000 589.0000 1.0000
60.8100 547.0000 1.0000
60.8200 552.0000 1.0000
60.8300 587.0000 1.0000
60.8400 562.0000 1.0000
60.8500 596.0000 1.0000
60.8600 586.0000 1.0000
60.8700 595.0000 1.0000
60.8800 579.0000 1.0000
60.8900 571.0000 1.0000
60.9000 558.0000 1.0000
60.9100 602.0000 1.0000
60.9200 619.0000 1.0000
60.9300 560.0000 1.0000
60.9400 543.0000 1.0000
60.9500 562.0000 1.0000
60.9600 584.0000 1.0000
60.9700 586.0000 1.0000
60.9800 559.0000 1.0000
60.9900 586.0000 1.0000
61.0000 603.0000 1.0000
61.0100 584.0000 1.0000
61.0200 591.0000 1.0000
61.0300 607.0000 1.0000
61.0400 614.0000 1.0000
61.0500 559.0000 1.0000
61.0600 588.0000 1.0000
61.0700 595.0000 1.0000
61.0800 585.0000 1.0000
61.0900 564.0000 1.0000
61.1000 566.0000 1.0000
61.1100 565.0000 1.0000
61.1200 610.0000 1.0000
61.1300 597.0000 1.0000
61.1400 582.0000 1.0000
61.1500 562.0000 1.0000
61.1600 595.0000 1.0000
61.1700 580.0000 1.0000
61.1800 613.0000 1.0000
61.1900 595.0000 1.0000
61.2000 568.0000 1.0000
61.2100 587.0000 1.0000
61.2200 642.0000 1.0000
61.2300 622.0000 1.0000
61.2400 615.0000 1.0000
61.2500 595.0000 1.0000
61.2600 582.0000 1.0000
61.2700 590.0000 1.0000
61.2800 609.0000 1.0000
61.2900 570.0000 1.0000
61.3000 644.0000 1.0000
61.3100 614.0000 1.0000
61.3200 585.0000 1.0000
61.3300 629.0000 1.0000
61.3400 596.0000 1.0000
61.3500 595.0000 1.0000
61.3600 601.0000 1.0000
61.3700 637.0000 1.0000
61.3800 568.0000 1.0000
61.3900 587.0000 1.0000
61.4000 620.0000 1.0000
61.4100 625.0000 1.0000
61.4200 616.0000 1.0000
61.4300 579.0000 1.0000
61.4400 584.0000 1.0000
61.4500 558.0000 1.0000
61.4600 586.0000 1.0000
61.4700 614.0000 1.0000
61.4800 597.0000 1.0000
61.4900 573.0000 1.0000
61.5000 579.0000 1.0000
61.5100 571.0000 1.0000
61.5200 639.0000 1.0000
61.5300 614.0000 1.0000
61.5400 637.0000 1.0000
61.5500 636.0000 1.0000
61.5600 600.0000 1.0000
61.5700 635.0000 1.0000
61.5800 630.0000 1.0000
61.5900 597.0000 1.0000
61.6000 574.0000 1.0000
61.6100 589.0000 1.0000
61.6200 602.0000 1.0000
61.6300 622.0000 1.0000
61.6400 623.0000 1.0000
61.6500 601.0000 1.0000
61.6600 582.0000 1.0000
61.6700 608.0000 1.0000
61.6800 633.0000 1.0000
61.6900 654.0000 1.0000
61.7000 653.0000 1.0000
61.7100 626.0000 1.0000
61.7200 635.0000 1.0000
61.7300 602.0000 1.0000
61.7400 603.0000 1.0000
61.7500 669.0000 1.0000
61.7600 683.0000 1.0000
61.7700 672.0000 1.0000
61.7800 660.0000 1.0000
61.7900 683.0000 1.0000
61.8000 667.0000 1.0000
61.8100 692.0000 1.0000
61.8200 656.0000 1.0000
61.8300 679.0000 1.0000
61.8400 696.0000 1.0000
61.8500 691.0000 1.0000
61.8600 704.0000 1.0000
61.8700 714.0000 1.0000
61.8800 694.0000 1.0000
61.8900 680.0000 1.0000
61.9000 666.0000 1.0000
61.9100 710.0000 1.0000
61.9200 712.0000 1.0000
61.9300 764.0000 1.0000
61.9400 741.0000 1.0000
61.9500 757.0000 1.0000
61.9600 775.0000 1.0000
61.9700 789.0000 1.0000
61.9800 828.0000 1.0000
61.9900 811.0000 1.0000
62.0000 849.0000 1.0000
62.0100 883.0000 1.0000
62.0200 838.0000 1.0000
62.0300 871.0000 1.0000
62.0400 872.0000 1.0000
62.0500 922.0000 1.0000
62.0600 996.0000 1.0000
62.0700 985.0000 1.0000
62.0800 1056.0000 1.0000
62.0900 1050.0000 1.0000
62.1000 1050.0000 1.0000
62.1100 1083.0000 1.0000
62.1200 1179.0000 1.0000
62.1300 1174.0000 1.0000
62.1400 1221.0000 1.0000
62.1500 1251.0000 1.0000
62.1600 1260.0000 1.0000
62.1700 1322.0000 1.0000
62.1800 1350.0000 1.0000
62.1900 1437.0000 1.0000
62.2000 1369.0000 1.0000
62.2100 1417.0000 1.0000
62.2200 1417.0000 1.0000
62.2300 1452.0000 1.0000
62.2400 1495.0000 1.0000
62.2500 1507.0000 1.0000
62.2600 1535.0000 1.0000
62.2700 1517.0000 1.0000
62.2800 1575.0000 1.0000
62.2900 1467.0000 1.0000
62.3000 1449.0000 1.0000
62.3100 1449.0000 1.0000
62.3200 1420.0000 1.0000
62.3300 1377.0000 1.0000
62.3400 1447.0000 1.0000
62.3500 1438.0000 1.0000
62.3600 1426.0000 1.0000
62.3700 1449.0000 1.0000
62.3800 1454.0000 1.0000
62.3900 1420.0000 1.0000
62.4000 1323.0000 1.0000
62.4100 1326.0000 1.0000
62.4200 1335.0000 1.0000
62.4300 1308.0000 1.0000
62.4400 1321.0000 1.0000
62.4500 1257.0000 1.0000
62.4600 1244.0000 1.0000
62.4700 1207.0000 1.0000
62.4800 1108.0000 1.0000
62.4900 1096.0000 1.0000
62.5000 1110.0000 1.0000
62.5100 1087.0000 1.0000
62.5200 1040.0000 1.0000
62.5300 1016.0000 1.0000
62.5400 1008.0000 1.0000
62.5500 967.0000 1.0000
62.5600 996.0000 1.0000
62.5700 958.0000 1.0000
62.5800 881.0000 1.0000
62.5900 870.0000 1.0000
62.6000 937.0000 1.0000
62.6100 857.0000 1.0000
62.6200 867.0000 1.0000
62.6300 817.0000 1.0000
62.6400 842.0000 1.0000
62.6500 818.0000 1.0000
62.6600 827.0000 1.0000
62.6700 793.0000 1.0000
62.6800 754.0000 1.0000
62.6900 725.0000 1.0000
62.7000 785.0000 1.0000
62.7100 748.0000 1.0000
62.7200 704.0000 1.0000
62.7300 726.0000 1.0000
62.7400 766.0000 1.0000
62.7500 703.0000 1.0000
62.7600 674.0000 1.0000
62.7700 751.0000 1.0000
62.7800 690.0000 1.0000
62.7900 699.0000 1.0000
62.8000 711.0000 1.0000
62.8100 703.0000 1.0000
62.8200 711.0000 1.0000
62.8300 655.0000 1.0000
62.8400 725.0000 1.0000
62.8500 668.0000 1.0000
62.8600 665.0000 1.0000
62.8700 650.0000 1.0000
62.8800 642.0000 1.0000
62.8900 651.0000 1.0000
62.9000 661.0000 1.0000
62.9100 650.0000 1.0000
62.9200 653.0000 1.0000
62.9300 617.0000 1.0000
62.9400 631.0000 1.0000
62.9500 645.0000 1.0000
62.9600 625.0000 1.0000
62.9700 619.0000 1.0000
62.9800 660.0000 1.0000
62.9900 677.0000 1.0000
63.0000 641.0000 1.0000
63.0100 610.0000 1.0000
63.0200 637.0000 1.0000
63.0300 656.0000 1.0000
63.0400 626.0000 1.0000
63.0500 656.0000 1.0000
63.0600 647.0000 1.0000
63.0700 645.0000 1.0000
63.0800 668.0000 1.0000
63.0900 632.0000 1.0000
63.1000 669.0000 1.0000
63.1100 622.0000 1.0000
63.1200 636.0000 1.0000
63.1300 612.0000 1.0000
63.1400 664.0000 1.0000
63.1500 636.0000 1.0000
63.1600 618.0000 1.0000
63.1700 611.0000 1.0000
63.1800 599.0000 1.0000
63.1900 636.0000 1.0000
63.2000 648.0000 1.0000
63.2100 616.0000 1.0000
63.2200 569.0000 1.0000
63.2300 621.0000 1.0000
63.2400 628.0000 1.0000
63.2500 615.0000 1.0000
63.2600 648.0000 1.0000
63.2700 658.0000 1.0000
63.2800 639.0000 1.0000
63.2900 627.0000 1.0000
63.3000 596.0000 1.0000
63.3100 621.0000 1.0000
63.3200 636.0000 1.0000
63.3300 649.0000 1.0000
63.3400 643.0000 1.0000
63.3500 608.0000 1.0000
63.3600 608.0000 1.0000
63.3700 654.0000 1.0000
63.3800 581.0000 1.0000
63.3900 633.0000 1.0000
63.4000 598.0000 1.0000
63.4100 586.0000 1.0000
63.4200 611.0000 1.0000
63.4300 580.0000 1.0000
63.4400 599.0000 1.0000
63.4500 591.0000 1.0000
63.4600 593.0000 1.0000
63.4700 564.0000 1.0000
63.4800 581.0000 1.0000
63.4900 583.0000 1.0000
63.5000 581.0000 1.0000
63.5100 593.0000 1.0000
63.5200 576.0000 1.0000
63.5300 611.0000 1.0000
63.5400 622.0000 1.0000
63.5500 591.0000 1.0000
63.5600 607.0000 1.0000
63.5700 579.0000 1.0000
63.5800 577.0000 1.0000
63.5900 601.0000 1.0000
63.6000 624.0000 1.0000
63.6100 595.0000 1.0000
63.6200 588.0000 1.0000
63.6300 597.0000 1.0000
63.6400 572.0000 1.0000
63.6500 590.0000 1.0000
63.6600 584.0000 1.0000
63.6700 605.0000 1.0000
63.6800 532.0000 1.0000
63.6900 599.0000 1.0000
63.7000 598.0000 1.0000
63.7100 578.0000 1.0000
63.7200 575.0000 1.0000
63.7300 610.0000 1.0000
63.7400 600.0000 1.0000
63.7500 558.0000 1.0000
63.7600 541.0000 1.0000
63.7700 548.0000 1.0000
63.7800 588.0000 1.0000
63.7900 588.0000 1.0000
63.8000 562.0000 1.0000
63.8100 627.0000 1.0000
63.8200 632.0000 1.0000
63.8300 637.0000 1.0000
63.8400 644.0000 1.0000
63.8500 566.0000 1.0000
63.8600 601.0000 1.0000
63.8700 597.0000 1.0000
63.8800 592.0000 1.0000
63.8900 612.0000 1.0000
63.9000 626.0000 1.0000
63.9100 599.0000 1.0000
63.9200 578.0000 1.0000
63.9300 607.0000 1.0000
63.9400 585.0000 1.0000
63.9500 605.0000 1.0000
63.9600 598.0000 1.0000
63.9700 612.0000 1.0000
63.9800 577.0000 1.0000
63.9900 601.0000 1.0000
64.0000 599.0000 1.0000
64.0100 578.0000 1.0000
64.0200 583.0000 1.0000
64.0300 575.0000 1.0000
64.0400 588.0000 1.0000
64.0500 619.0000 1.0000
64.0600 580.0000 1.0000
64.0700 617.0000 1.0000
64.0800 581.0000 1.0000
64.0900 542.0000 1.0000
64.1000 580.0000 1.0000
64.1100 561.0000 1.0000
64.1200 573.0000 1.0000
64.1300 584.0000 1.0000
64.1400 600.0000 1.0000
64.1500 602.0000 1.0000
64.1600 593.0000 1.0000
64.1700 602.0000 1.0000
64.1800 587.0000 1.0000
64.1900 601.0000 1.0000
64.2000 624.0000 1.0000
64.2100 550.0000 1.0000
64.2200 608.0000 1.0000
64.2300 591.0000 1.0000
64.2400 592.0000 1.0000
64.2500 613.0000 1.0000
64.2600 616.0000 1.0000
64.2700 651.0000 1.0000
64.2800 619.0000 1.0000
64.2900 581.0000 1.0000
64.3000 585.0000 1.0000
64.3100 556.0000 1.0000
64.3200 599.0000 1.0000
64.3300 620.0000 1.0000
64.3400 585.0000 1.0000
64.3500 642.0000 1.0000
64.3600 649.0000 1.0000
64.3700 617.0000 1.0000
64.3800 622.0000 1.0000
64.3900 641.0000 1.0000
64.4000 603.0000 1.0000
64.4100 605.0000 1.0000
64.4200 616.0000 1.0000
64.4300 653.0000 1.0000
64.4400 661.0000 1.0000
64.4500 579.0000 1.0000
64.4600 598.0000 1.0000
64.4700 624.0000 1.0000
64.4800 591.0000 1.0000
64.4900 584.0000 1.0000
64.5000 588.0000 1.0000
64.5100 625.0000 1.0000
64.5200 622.0000 1.0000
64.5300 647.0000 1.0000
64.5400 657.0000 1.0000
64.5500 689.0000 1.0000
64.5600 664.0000 1.0000
64.5700 687.0000 1.0000
64.5800 645.0000 1.0000
64.5900 693.0000 1.0000
64.6000 652.0000 1.0000
64.6100 636.0000 1.0000
64.6200 631.0000 1.0000
64.6300 656.0000 1.0000
64.6400 689.0000 1.0000
64.6500 700.0000 1.0000
64.6600 684.0000 1.0000
64.6700 683.0000 1.0000
64.6800 699.0000 1.0000
64.6900 663.0000 1.0000
64.7000 675.0000 1.0000
64.7100 699.0000 1.0000
64.7200 665.0000 1.0000
64.7300 663.0000 1.0000
64.7400 648.0000 1.0000
64.7500 719.0000 1.0000
64.7600 652.0000 1.0000
64.7700 643.0000 1.0000
64.7800 627.0000 1.0000
64.7900 686.0000 1.0000
64.8000 640.0000 1.0000
64.8100 653.0000 1.0000
64.8200 631.0000 1.0000
64.8300 650.0000 1.0000
64.8400 649.0000 1.0000
64.8500 676.0000 1.0000
64.8600 643.0000 1.0000
64.8700 670.0000 1.0000
64.8800 677.0000 1.0000
64.8900 624.0000 1.0000
64.9000 625.0000 1.0000
64.9100 632.0000 1.0000
64.9200 608.0000 1.0000
64.9300 626.0000 1.0000
64.9400 682.0000 1.0000
64.9500 626.0000 1.0000
64.9600 615.0000 1.0000
64.9700 641.0000 1.0000
64.9800 621.0000 1.0000
64.9900 649.0000 1.0000
65.0000 645.0000 1.0000
65.0100 636.0000 1.0000
65.0200 604.0000 1.0000
65.0300 611.0000 1.0000
65.0400 654.0000 1.0000
65.0500 648.0000 1.0000
65.0600 625.0000 1.0000
65.0700 659.0000 1.0000
65.0800 640.0000 1.0000
65.0900 664.0000 1.0000
65.1000 625.0000 1.0000
65.1100 636.0000 1.0000
65.1200 643.0000 1.0000
65.1300 623.0000 1.0000
65.1400 608.0000 1.0000
65.1500 599.0000 1.0000
65.1600 648.0000 1.0000
65.1700 633.0000 1.0000
65.1800 616.0000 1.0000
65.1900 584.0000 1.0000
65.2000 587.0000 1.0000
65.2100 600.0000 1.0000
65.2200 620.0000 1.0000
65.2300 607.0000 1.0000
65.2400 608.0000 1.0000
65.2500 597.0000 1.0000
65.2600 614.0000 1.0000
65.2700 584.0000 1.0000
65.2800 611.0000 1.0000
65.2900 581.0000 1.0000
65.3000 604.0000 1.0000
65.3100 615.0000 1.0000
65.3200 569.0000 1.0000
65.3300 597.0000 1.0000
65.3400 623.0000 1.0000
65.3500 637.0000 1.0000
65.3600 613.0000 1.0000
65.3700 615.0000 1.0000
65.3800 645.0000 1.0000
65.3900 600.0000 1.0000
65.4000 643.0000 1.0000
65.4100 648.0000 1.0000
65.4200 639.0000 1.0000
65.4300 609.0000 1.0000
65.4400 597.0000 1.0000
65.4500 576.0000 1.0000
65.4600 644.0000 1.0000
65.4700 623.0000 1.0000
65.4800 610.0000 1.0000
65.4900 643.0000 1.0000
65.5000 610.0000 1.0000
65.5100 591.0000 1.0000
65.5200 586.0000 1.0000
65.5300 631.0000 1.0000
65.5400 617.0000 1.0000
65.5500 606.0000 1.0000
65.5600 672.0000 1.0000
65.5700 667.0000 1.0000
65.5800 659.0000 1.0000
65.5900 646.0000 1.0000
65.6000 674.0000 1.0000
65.6100 651.0000 1.0000
65.6200 625.0000 1.0000
65.6300 641.0000 1.0000
65.6400 657.0000 1.0000
65.6500 642.0000 1.0000
65.6600 664.0000 1.0000
65.6700 657.0000 1.0000
65.6800 625.0000 1.0000
65.6900 625.0000 1.0000
65.7000 664.0000 1.0000
65.7100 677.0000 1.0000
65.7200 682.0000 1.0000
65.7300 657.0000 1.0000
65.7400 661.0000 1.0000
65.7500 690.0000 1.0000
65.7600 719.0000 1.0000
65.7700 720.0000 1.0000
65.7800 698.0000 1.0000
65.7900 695.0000 1.0000
65.8000 677.0000 1.0000
65.8100 736.0000 1.0000
65.8200 734.0000 1.0000
65.8300 692.0000 1.0000
65.8400 688.0000 1.0000
65.8500 746.0000 1.0000
65.8600 789.0000 1.0000
65.8700 782.0000 1.0000
65.8800 802.0000 1.0000
65.8900 817.0000 1.0000
65.9000 867.0000 1.0000
65.9100 816.0000 1.0000
65.9200 861.0000 1.0000
65.9300 854.0000 1.0000
65.9400 873.0000 1.0000
65.9500 904.0000 1.0000
65.9600 929.0000 1.0000
65.9700 931.0000 1.0000
65.9800 1002.0000 1.0000
65.9900 952.0000 1.0000
66.0000 1048.0000 1.0000
66.0100 1111.0000 1.0000
66.0200 1100.0000 1.0000
66.0300 1134.0000 1.0000
66.0400 1193.0000 1.0000
66.0500 1215.0000 1.0000
66.0600 1376.0000 1.0000
66.0700 1364.0000 1.0000
66.0800 1363.0000 1.0000
66.0900 1552.0000 1.0000
66.1000 1623.0000 1.0000
66.1100 1656.0000 1.0000
66.1200 1801.0000 1.0000
66.1300 1835.0000 1.0000
66.1400 1952.0000 1.0000
66.1500 2181.0000 1.0000
66.1600 2187.0000 1.0000
66.1700 2320.0000 1.0000
66.1800 2308.0000 1.0000
66.1900 2404.0000 1.0000
66.2000 2379.0000 1.0000
66.2100 2494.0000 1.0000
66.2200 2447.0000 1.0000
66.2300 2425.0000 1.0000
66.2400 2442.0000 1.0000
66.2500 2331.0000 1.0000
66.2600 2319.0000 1.0000
66.2700 2319.0000 1.0000
66.2800 2291.0000 1.0000
66.2900 2199.0000 1.0000
66.3000 2115.0000 1.0000
66.3100 2178.0000 1.0000
66.3200 2205.0000 1.0000
66.3300 2093.0000 1.0000
66.3400 2103.0000 1.0000
66.3500 2161.0000 1.0000
66.3600 2032.0000 1.0000
66.3700 1992.0000 1.0000
66.3800 1946.0000 1.0000
66.3900 1960.0000 1.0000
66.4000 1832.0000 1.0000
66.4100 1839.0000 1.0000
66.4200 1797.0000 1.0000
66.4300 1777.0000 1.0000
66.4400 1641.0000 1.0000
66.4500 1576.0000 1.0000
66.4600 1548.0000 1.0000
66.4700 1467.0000 1.0000
66.4800 1493.0000 1.0000
66.4900 1313.0000 1.0000
66.5000 1220.0000 1.0000
66.5100 1218.0000 1.0000
66.5200 1185.0000 1.0000
66.5300 1121.0000 1.0000
66.5400 1078.0000 1.0000
66.5500 1079.0000 1.0000
66.5600 1028.0000 1.0000
66.5700 1015.0000 1.0000
66.5800 988.0000 1.0000
66.5900 982.0000 1.0000
66.6000 938.0000 1.0000
66.6100 889.0000 1.0000
66.6200 897.0000 1.0000
66.6300 874.0000 1.0000
66.6400 874.0000 1.0000
66.6500 846.0000 1.0000
66.6600 852.0000 1.0000
66.6700 811.0000 1.0000
66.6800 810.0000 1.0000
66.6900 776.0000 1.0000
66.7000 764.0000 1.0000
66.7100 746.0000 1.0000
66.7200 774.0000 1.0000
66.7300 721.0000 1.0000
66.7400 710.0000 1.0000
66.7500 691.0000 1.0000
66.7600 696.0000 1.0000
66.7700 685.0000 1.0000
66.7800 677.0000 1.0000
66.7900 638.0000 1.0000
66.8000 639.0000 1.0000
66.8100 644.0000 1.0000
66.8200 658.0000 1.0000
66.8300 674.0000 1.0000
66.8400 650.0000 1.0000
66.8500 620.0000 1.0000
66.8600 668.0000 1.0000
66.8700 612.0000 1.0000
66.8800 620.0000 1.0000
66.8900 640.0000 1.0000
66.9000 605.0000 1.0000
66.9100 629.0000 1.0000
66.9200 614.0000 1.0000
66.9300 607.0000 1.0000
66.9400 600.0000 1.0000
66.9500 567.0000 1.0000
66.9600 620.0000 1.0000
66.9700 579.0000 1.0000
66.9800 597.0000 1.0000
66.9900 605.0000 1.0000
67.0000 591.0000 1.0000
67.0100 579.0000 1.0000
67.0200 626.0000 1.0000
67.0300 617.0000 1.0000
67.0400 587.0000 1.0000
67.0500 614.0000 1.0000
67.0600 568.0000 1.0000
67.0700 578.0000 1.0000
67.0800 596.0000 1.0000
67.0900 554.0000 1.0000
67.1000 595.0000 1.0000
67.1100 556.0000 1.0000
67.1200 575.0000 1.0000
67.1300 584.0000 1.0000
67.1400 591.0000 1.0000
67.1500 563.0000 1.0000
67.1600 584.0000 1.0000
67.1700 576.0000 1.0000
67.1800 573.0000 1.0000
67.1900 597.0000 1.0000
67.2000 558.0000 1.0000
67.2100 555.0000 1.0000
67.2200 582.0000 1.0000
67.2300 545.0000 1.0000
67.2400 536.0000 1.0000
67.2500 580.0000 1.0000
67.2600 591.0000 1.0000
67.2700 548.0000 1.0000
67.2800 562.0000 1.0000
67.2900 527.0000 1.0000
67.3000 572.0000 1.0000
67.3100 561.0000 1.0000
67.3200 577.0000 1.0000
67.3300 563.0000 1.0000
67.3400 550.0000 1.0000
67.3500 590.0000 1.0000
67.3600 533.0000 1.0000
67.3700 549.0000 1.0000
67.3800 574.0000 1.0000
67.3900 568.0000 1.0000
67.4000 552.0000 1.0000
67.4100 543.0000 1.0000
67.4200 561.0000 1.0000
67.4300 552.0000 1.0000
67.4400 585.0000 1.0000
67.4500 546.0000 1.0000
67.4600 548.0000 1.0000
67.4700 515.0000 1.0000
67.4800 527.0000 1.0000
67.4900 550.0000 1.0000
67.5000 558.0000 1.0000
67.5100 552.0000 1.0000
67.5200 577.0000 1.0000
67.5300 594.0000 1.0000
67.5400 569.0000 1.0000
67.5500 554.0000 1.0000
67.5600 569.0000 1.0000
67.5700 616.0000 1.0000
67.5800 568.0000 1.0000
67.5900 572.0000 1.0000
67.6000 524.0000 1.0000
67.6100 548.0000 1.0000
67.6200 552.0000 1.0000
67.6300 534.0000 1.0000
67.6400 544.0000 1.0000
67.6500 554.0000 1.0000
67.6600 509.0000 1.0000
67.6700 505.0000 1.0000
67.6800 534.0000 1.0000
67.6900 558.0000 1.0000
67.7000 555.0000 1.0000
67.7100 530.0000 1.0000
67.7200 533.0000 1.0000
67.7300 550.0000 1.0000
67.7400 551.0000 1.0000
67.7500 559.0000 1.0000
67.7600 531.0000 1.0000
67.7700 555.0000 1.0000
67.7800 560.0000 1.0000
67.7900 556.0000 1.0000
67.8000 582.0000 1.0000
67.8100 540.0000 1.0000
67.8200 546.0000 1.0000
67.8300 543.0000 1.0000
67.8400 541.0000 1.0000
67.8500 573.0000 1.0000
67.8600 543.0000 1.0000
67.8700 563.0000 1.0000
67.8800 502.0000 1.0000
67.8900 506.0000 1.0000
67.9000 554.0000 1.0000
67.9100 532.0000 1.0000
67.9200 519.0000 1.0000
67.9300 553.0000 1.0000
67.9400 575.0000 1.0000
67.9500 543.0000 1.0000
67.9600 528.0000 1.0000
67.9700 521.0000 1.0000
67.9800 508.0000 1.0000
67.9900 528.0000 1.0000
68.0000 580.0000 1.0000
68.0100 534.0000 1.0000
68.0200 536.0000 1.0000
68.0300 525.0000 1.0000
68.0400 526.0000 1.0000
68.0500 540.0000 1.0000
68.0600 563.0000 1.0000
68.0700 543.0000 1.0000
68.0800 563.0000 1.0000
68.0900 517.0000 1.0000
68.1000 562.0000 1.0000
68.1100 530.0000 1.0000
68.1200 546.0000 1.0000
68.1300 506.0000 1.0000
68.1400 523.0000 1.0000
68.1500 555.0000 1.0000
68.1600 547.0000 1.0000
68.1700 533.0000 1.0000
68.1800 538.0000 1.0000
68.1900 521.0000 1.0000
68.2000 520.0000 1.0000
68.2100 526.0000 1.0000
68.2200 549.0000 1.0000
68.2300 533.0000 1.0000
68.2400 545.0000 1.0000
68.2500 551.0000 1.0000
68.2600 534.0000 1.0000
68.2700 529.0000 1.0000
68.2800 514.0000 1.0000
68.2900 520.0000 1.0000
68.3000 530.0000 1.0000
68.3100 575.0000 1.0000
68.3200 548.0000 1.0000
68.3300 539.0000 1.0000
68.3400 541.0000 1.0000
68.3500 517.0000 1.0000
68.3600 544.0000 1.0000
68.3700 546.0000 1.0000
68.3800 513.0000 1.0000
68.3900 539.0000 1.0000
68.4000 522.0000 1.0000
68.4100 531.0000 1.0000
68.4200 508.0000 1.0000
68.4300 527.0000 1.0000
68.4400 542.0000 1.0000
68.4500 546.0000 1.0000
68.4600 525.0000 1.0000
68.4700 500.0000 1.0000
68.4800 536.0000 1.0000
68.4900 518.0000 1.0000
68.5000 515.0000 1.0000
68.5100 525.0000 1.0000
68.5200 529.0000 1.0000
68.5300 526.0000 1.0000
68.5400 544.0000 1.0000
68.5500 507.0000 1.0000
68.5600 541.0000 1.0000
68.5700 515.0000 1.0000
68.5800 539.0000 1.0000
68.5900 499.0000 1.0000
68.6000 521.0000 1.0000
68.6100 498.0000 1.0000
68.6200 511.0000 1.0000
68.6300 544.0000 1.0000
68.6400 541.0000 1.0000
68.6500 535.0000 1.0000
68.6600 493.0000 1.0000
68.6700 524.0000 1.0000
68.6800 537.0000 1.0000
68.6900 513.0000 1.0000
68.7000 528.0000 1.0000
68.7100 536.0000 1.0000
68.7200 527.0000 1.0000
68.7300 534.0000 1.0000
68.7400 535.0000 1.0000
68.7500 565.0000 1.0000
68.7600 549.0000 1.0000
68.7700 521.0000 1.0000
68.7800 520.0000 1.0000
68.7900 520.0000 1.0000
68.8000 522.0000 1.0000
68.8100 535.0000 1.0000
68.8200 519.0000 1.0000
68.8300 529.0000 1.0000
68.8400 529.0000 1.0000
68.8500 536.0000 1.0000
68.8600 519.0000 1.0000
68.8700 491.0000 1.0000
68.8800 495.0000 1.0000
68.8900 515.0000 1.0000
68.9000 547.0000 1.0000
68.9100 520.0000 1.0000
68.9200 511.0000 1.0000
68.9300 516.0000 1.0000
68.9400 546.0000 1.0000
68.9500 525.0000 1.0000
68.9600 545.0000 1.0000
68.9700 523.0000 1.0000
68.9800 540.0000 1.0000
68.9900 524.0000 1.0000
69.0000 504.0000 1.0000
69.0100 542.0000 1.0000
69.0200 531.0000 1.0000
69.0300 512.0000 1.0000
69.0400 480.0000 1.0000
69.0500 503.0000 1.0000
69.0600 530.0000 1.0000
69.0700 525.0000 1.0000
69.0800 506.0000 1.0000
69.0900 503.0000 1.0000
69.1000 520.0000 1.0000
69.1100 496.0000 1.0000
69.1200 513.0000 1.0000
69.1300 478.0000 1.0000
69.1400 512.0000 1.0000
69.1500 508.0000 1.0000
69.1600 527.0000 1.0000
69.1700 524.0000 1.0000
69.1800 511.0000 1.0000
69.1900 511.0000 1.0000
69.2000 487.0000 1.0000
69.2100 541.0000 1.0000
69.2200 563.0000 1.0000
69.2300 519.0000 1.0000
69.2400 546.0000 1.0000
69.2500 536.0000 1.0000
69.2600 550.0000 1.0000
69.2700 526.0000 1.0000
69.2800 508.0000 1.0000
69.2900 496.0000 1.0000
69.3000 486.0000 1.0000
69.3100 489.0000 1.0000
69.3200 520.0000 1.0000
69.3300 497.0000 1.0000
69.3400 498.0000 1.0000
69.3500 500.0000 1.0000
69.3600 536.0000 1.0000
69.3700 511.0000 1.0000
69.3800 540.0000 1.0000
69.3900 508.0000 1.0000
69.4000 525.0000 1.0000
69.4100 561.0000 1.0000
69.4200 535.0000 1.0000
69.4300 491.0000 1.0000
69.4400 483.0000 1.0000
69.4500 510.0000 1.0000
69.4600 559.0000 1.0000
69.4700 497.0000 1.0000
69.4800 524.0000 1.0000
69.4900 509.0000 1.0000
69.5000 493.0000 1.0000
69.5100 526.0000 1.0000
69.5200 524.0000 1.0000
69.5300 517.0000 1.0000
69.5400 532.0000 1.0000
69.5500 521.0000 1.0000
69.5600 517.0000 1.0000
69.5700 534.0000 1.0000
69.5800 483.0000 1.0000
69.5900 511.0000 1.0000
69.6000 502.0000 1.0000
69.6100 516.0000 1.0000
69.6200 565.0000 1.0000
69.6300 529.0000 1.0000
69.6400 534.0000 1.0000
69.6500 501.0000 1.0000
69.6600 490.0000 1.0000
69.6700 530.0000 1.0000
69.6800 494.0000 1.0000
69.6900 493.0000 1.0000
69.7000 530.0000 1.0000
69.7100 493.0000 1.0000
69.7200 483.0000 1.0000
69.7300 506.0000 1.0000
69.7400 531.0000 1.0000
69.7500 506.0000 1.0000
69.7600 539.0000 1.0000
69.7700 524.0000 1.0000
69.7800 511.0000 1.0000
69.7900 524.0000 1.0000
69.8000 488.0000 1.0000
69.8100 489.0000 1.0000
69.8200 478.0000 1.0000
69.8300 525.0000 1.0000
69.8400 528.0000 1.0000
69.8500 528.0000 1.0000
69.8600 530.0000 1.0000
69.8700 489.0000 1.0000
69.8800 495.0000 1.0000
69.8900 520.0000 1.0000
69.9000 540.0000 1.0000
69.9100 500.0000 1.0000
69.9200 499.0000 1.0000
69.9300 491.0000 1.0000
69.9400 494.0000 1.0000
69.9500 457.0000 1.0000
69.9600 485.0000 1.0000
69.9700 484.0000 1.0000
69.9800 470.0000 1.0000
69.9900 489.0000 1.0000
70.0000 478.0000 1.0000
*RAS_INT_END
*RAS_TEMPERATURE_START
*RAS_TEMPERATURE_END
*RAS_DATA_END
