*RAS_DATA_START
*RAS_HEADER_START
*DISP_FMT_X "%.2f"
*DISP_FMT_Y "%.0f"
*DISP_FULLSCALE "13034.0000000000"
*DISP_LINE_COLOR "255.0000000000"
*DISP_LINE_STYLE "0.0000000000"
*DISP_LINE_WIDTH "0.2500000000"
*DISP_NOTE "測定データ-8"
*DISP_OFFSET_Y "0.0000000000"
*DISP_PEAKSEARCH_UNIT_Y "cps"
*DISP_RANGE_BOTTOM "0.0000000000"
*DISP_RANGE_LEFT "20.0000000000"
*DISP_RANGE_LOGCUTOFF "0.0100000000"
*DISP_RANGE_RIGHT "70.0000000000"
*DISP_RANGE_TOP "13034.0000000000"
*DISP_SCALE_MODE_Y "0.0000000000"
*DISP_TAB_NAME "2θ/θ"
*DISP_TITLE_Y "強度"
*DISP_UNIT_Y "cps"
*DISP_WINDOW_NAME "MSG_MACROENGINE"
*FILE_COMMENT " "
*FILE_MD5 ""
*FILE_MEMO " "
*FILE_OPERATOR "Administrator"
*FILE_SAMPLE " "
*FILE_TYPE "RAS_RAW"
*FILE_USERGROUP "システムマネージャ"
*FILE_VERSION "1.0000000000"
*HW_ATTACHMENT_ID "ATT0025"
*HW_ATTACHMENT_NAME "標準|Standard"
*HW_COUNTER_ID-0 "CUT0025"
*HW_COUNTER_ID-1 "CUT0020"
*HW_COUNTER_ID-2 "CUT0020"
*HW_COUNTER_ID-3 "CSL0021"
*HW_COUNTER_ID-4 "CMC0021"
*HW_COUNTER_NAME-0 "D/teX Ultra|D/teX Ultra"
*HW_COUNTER_NAME-1 "None|None"
*HW_COUNTER_NAME-2 "None|None"
*HW_COUNTER_NAME-3 "BBM|BBM"
*HW_COUNTER_NAME-4 "検出器モノクロメータ|Detector monochromator"
*HW_COUNTER_SELECT_NAME "D/teX Ultra|D/teX Ultra"
*HW_GONIOMETER_ID "GON0023"
*HW_GONIOMETER_NAME "SmartLab|SmartLab"
*HW_GONIOMETER_RADIUS-0 "90.0"
*HW_GONIOMETER_RADIUS-1 "114.0"
*HW_GONIOMETER_RADIUS-2 "190.0"
*HW_GONIOMETER_RADIUS-3 "300.0"
*HW_GONIOMETER_RADIUS-4 "187.0"
*HW_GONIOMETER_RADIUS-5 "300.0"
*HW_GONIOMETER_RADIUS-6 "113.0"
*HW_GONIOMETER_RADIUS-7 "331.0"
*HW_I_OPT_ID-0 "CBO0021"
*HW_I_OPT_ID-1 "ICR0023"
*HW_I_OPT_ID-2 "ISL0021"
*HW_I_OPT_ID-3 "ISO0021"
*HW_I_OPT_ID-4 "IAD0021"
*HW_I_OPT_ID-5 "IPR0001"
*HW_I_OPT_NAME-0 "CBOユニット|CBO unit"
*HW_I_OPT_NAME-1 "標準入射光学ユニット|Standard incident optical unit"
*HW_I_OPT_NAME-2 "標準入射スリットボックス|Standard incident slit box"
*HW_I_OPT_NAME-3 "入射平行スリット|Incident parallel slit"
*HW_I_OPT_NAME-4 "長手制限スリット|Length limiting slit"
*HW_I_OPT_NAME-5 "None|None"
*HW_R_ATTENUATER_AUTOMODE "0"
*HW_R_OPT_ID-0 "RSS0021"
*HW_R_OPT_ID-1 "RCR0023"
*HW_R_OPT_ID-2 "RSO0021"
*HW_R_OPT_ID-3 "RRS0021"
*HW_R_OPT_ID-4 "ATN0021"
*HW_R_OPT_ID-5 "RFL0021"
*HW_R_OPT_ID-6 "RAD0021"
*HW_R_OPT_NAME-0 "標準受光スリットボックス1|Standard receiving slit box # 1"
*HW_R_OPT_NAME-1 "標準受光光学ユニット1|Standard receiving unit # 1"
*HW_R_OPT_NAME-2 "標準受光光学ユニット2|Standard receiving optical unit # 2"
*HW_R_OPT_NAME-3 "標準受光スリットボックス2|Standard receiving slit box # 2"
*HW_R_OPT_NAME-4 "標準アッテネータ|Standard Attenuator"
*HW_R_OPT_NAME-5 "Cu Kβ|Cu K-beta"
*HW_R_OPT_NAME-6 "調整用受光スリット|Alignment receiving slit"
*HW_SAMPLE_HOLDER_ID "SMP0023"
*HW_SAMPLE_HOLDER_NAME "標準Zステージ|Standard Z stage"
*HW_XG_CURRENT_MAX "50"
*HW_XG_CURRENT_MIN "2"
*HW_XG_CURRENT_RESOLUTION "1"
*HW_XG_CURRENT_UNIT "mA"
*HW_XG_FOCUS "1mm x 10mm"
*HW_XG_FOCUS_TYPE "Normal"
*HW_XG_ID ""
*HW_XG_NAME "3kW 封入管(ID:1200)|3kW Sealed tube(ID:1200)"
*HW_XG_TARGET_ATOMIC_NUMBER "29.0000000000"
*HW_XG_TARGET_NAME "Cu"
*HW_XG_TYPE "Hermetic"
*HW_XG_VOLTAGE_MAX "60"
*HW_XG_VOLTAGE_MIN "20"
*HW_XG_VOLTAGE_RESOLUTION "1"
*HW_XG_VOLTAGE_UNIT "kV"
*HW_XG_WATT_MAX "1.500"
*HW_XG_WATT_UNIT "kW"
*HW_XG_WAVE_LENGTH_ALPHA1 "1.540593"
*HW_XG_WAVE_LENGTH_ALPHA2 "1.544414"
*HW_XG_WAVE_LENGTH_BETA "1.392250"
*MEAS_COND_AXIS_NAME-0 "2θ/θ"
*MEAS_COND_AXIS_NAME-1 "2θ"
*MEAS_COND_AXIS_NAME-2 "ω"
*MEAS_COND_AXIS_NAME-3 "Z"
*MEAS_COND_AXIS_NAME-4 "2θ/ω"
*MEAS_COND_AXIS_NAME-5 "θs"
*MEAS_COND_AXIS_NAME-6 "θd"
*MEAS_COND_AXIS_NAME-7 "Ts"
*MEAS_COND_AXIS_NAME-8 "CBO選択スリット"
*MEAS_COND_AXIS_NAME-9 "M"
*MEAS_COND_AXIS_NAME-10 "入射平行スリット"
*MEAS_COND_AXIS_NAME-11 "入射スリット"
*MEAS_COND_AXIS_NAME-12 ""
*MEAS_COND_AXIS_NAME-13 "Zs"
*MEAS_COND_AXIS_NAME-14 "入射光学素子"
*MEAS_COND_AXIS_NAME-15 "長手制限スリット"
*MEAS_COND_AXIS_NAME-16 "センタースリット"
*MEAS_COND_AXIS_NAME-17 "フィルター"
*MEAS_COND_AXIS_NAME-18 "受光スリット1"
*MEAS_COND_AXIS_NAME-19 "受光スリット2"
*MEAS_COND_AXIS_NAME-20 "受光光学素子"
*MEAS_COND_AXIS_NAME-21 "受光平行スリット"
*MEAS_COND_AXIS_NAME-22 "調整用受光スリット"
*MEAS_COND_AXIS_NAME-23 ""
*MEAS_COND_AXIS_NAME-24 ""
*MEAS_COND_AXIS_NAME-25 "Zd"
*MEAS_COND_AXIS_NAME-26 "アッテネータ"
*MEAS_COND_AXIS_NAME-27 "検出器モノクロメータ"
*MEAS_COND_AXIS_NAME-28 "モノクロメータスリット"
*MEAS_COND_AXIS_NAME-29 "プライマリビーム"
*MEAS_COND_AXIS_NAME-30 "PHA"
*MEAS_COND_AXIS_NAME_INTERNAL-0 "TwoThetaTheta"
*MEAS_COND_AXIS_NAME_INTERNAL-1 "TwoTheta"
*MEAS_COND_AXIS_NAME_INTERNAL-2 "Omega"
*MEAS_COND_AXIS_NAME_INTERNAL-3 "Z"
*MEAS_COND_AXIS_NAME_INTERNAL-4 "TwoThetaOmega"
*MEAS_COND_AXIS_NAME_INTERNAL-5 "ThetaS"
*MEAS_COND_AXIS_NAME_INTERNAL-6 "ThetaD"
*MEAS_COND_AXIS_NAME_INTERNAL-7 "Ts"
*MEAS_COND_AXIS_NAME_INTERNAL-8 "CBO"
*MEAS_COND_AXIS_NAME_INTERNAL-9 "CBO-M"
*MEAS_COND_AXIS_NAME_INTERNAL-10 "IncidentSollerSlit"
*MEAS_COND_AXIS_NAME_INTERNAL-11 "IncidentSlitBox"
*MEAS_COND_AXIS_NAME_INTERNAL-12 "IncidentSlitBox-_Axis"
*MEAS_COND_AXIS_NAME_INTERNAL-13 "Zs"
*MEAS_COND_AXIS_NAME_INTERNAL-14 "IncidentMonochromator"
*MEAS_COND_AXIS_NAME_INTERNAL-15 "IncidentAxdSlit"
*MEAS_COND_AXIS_NAME_INTERNAL-16 "CenterSlit"
*MEAS_COND_AXIS_NAME_INTERNAL-17 "Filter"
*MEAS_COND_AXIS_NAME_INTERNAL-18 "ReceivingSlitBox1"
*MEAS_COND_AXIS_NAME_INTERNAL-19 "ReceivingSlitBox2"
*MEAS_COND_AXIS_NAME_INTERNAL-20 "ReceivingOptics"
*MEAS_COND_AXIS_NAME_INTERNAL-21 "ReceivingSollerSlit"
*MEAS_COND_AXIS_NAME_INTERNAL-22 "ReceivingAxdSlit"
*MEAS_COND_AXIS_NAME_INTERNAL-23 "ReceivingSlitBox1-_Axis"
*MEAS_COND_AXIS_NAME_INTERNAL-24 "ReceivingSlitBox2-_Axis"
*MEAS_COND_AXIS_NAME_INTERNAL-25 "ReceivingSlitBox2-Zd"
*MEAS_COND_AXIS_NAME_INTERNAL-26 "Attenuator"
*MEAS_COND_AXIS_NAME_INTERNAL-27 "CounterMonochromator"
*MEAS_COND_AXIS_NAME_INTERNAL-28 "CounterSlit"
*MEAS_COND_AXIS_NAME_INTERNAL-29 "IncidentPrimary"
*MEAS_COND_AXIS_NAME_INTERNAL-30 "PHA"
*MEAS_COND_AXIS_NAME_MAGICNO-0 "83951616.0000000000"
*MEAS_COND_AXIS_NAME_MAGICNO-1 "268632064.0000000000"
*MEAS_COND_AXIS_NAME_MAGICNO-2 "268500992.0000000000"
*MEAS_COND_AXIS_NAME_MAGICNO-3 "285278208.0000000000"
*MEAS_COND_AXIS_NAME_MAGICNO-4 "83951616.0000000000"
*MEAS_COND_AXIS_NAME_MAGICNO-5 "131072.0000000000"
*MEAS_COND_AXIS_NAME_MAGICNO-6 "131072.0000000000"
*MEAS_COND_AXIS_NAME_MAGICNO-7 "318898176.0000000000"
*MEAS_COND_AXIS_NAME_MAGICNO-8 "20971521.0000000000"
*MEAS_COND_AXIS_NAME_MAGICNO-9 "285343744.0000000000"
*MEAS_COND_AXIS_NAME_MAGICNO-10 "20971521.0000000000"
*MEAS_COND_AXIS_NAME_MAGICNO-11 "22020097.0000000000"
*MEAS_COND_AXIS_NAME_MAGICNO-12 "25165824.0000000000"
*MEAS_COND_AXIS_NAME_MAGICNO-13 "318898176.0000000000"
*MEAS_COND_AXIS_NAME_MAGICNO-14 "1.0000000000"
*MEAS_COND_AXIS_NAME_MAGICNO-15 "20971521.0000000000"
*MEAS_COND_AXIS_NAME_MAGICNO-16 "20971521.0000000000"
*MEAS_COND_AXIS_NAME_MAGICNO-17 "20971521.0000000000"
*MEAS_COND_AXIS_NAME_MAGICNO-18 "23068673.0000000000"
*MEAS_COND_AXIS_NAME_MAGICNO-19 "23068673.0000000000"
*MEAS_COND_AXIS_NAME_MAGICNO-20 "20971521.0000000000"
*MEAS_COND_AXIS_NAME_MAGICNO-21 "20971521.0000000000"
*MEAS_COND_AXIS_NAME_MAGICNO-22 "20971521.0000000000"
*MEAS_COND_AXIS_NAME_MAGICNO-23 "25165824.0000000000"
*MEAS_COND_AXIS_NAME_MAGICNO-24 "25165824.0000000000"
*MEAS_COND_AXIS_NAME_MAGICNO-25 "285343744.0000000000"
*MEAS_COND_AXIS_NAME_MAGICNO-26 "17301505.0000000000"
*MEAS_COND_AXIS_NAME_MAGICNO-27 "20971521.0000000000"
*MEAS_COND_AXIS_NAME_MAGICNO-28 "20971521.0000000000"
*MEAS_COND_AXIS_NAME_MAGICNO-29 "20971521.0000000000"
*MEAS_COND_AXIS_NAME_MAGICNO-30 "0.0000000000"
*MEAS_COND_AXIS_OFFSET-0 "-"
*MEAS_COND_AXIS_OFFSET-1 "-0.1081000000"
*MEAS_COND_AXIS_OFFSET-2 "0.3758000000"
*MEAS_COND_AXIS_OFFSET-3 "-"
*MEAS_COND_AXIS_OFFSET-4 "-"
*MEAS_COND_AXIS_OFFSET-5 "0.3758000000"
*MEAS_COND_AXIS_OFFSET-6 "-0.4839000000"
*MEAS_COND_AXIS_OFFSET-7 "-"
*MEAS_COND_AXIS_OFFSET-8 "-"
*MEAS_COND_AXIS_OFFSET-9 "-"
*MEAS_COND_AXIS_OFFSET-10 "-"
*MEAS_COND_AXIS_OFFSET-11 "-"
*MEAS_COND_AXIS_OFFSET-12 "-"
*MEAS_COND_AXIS_OFFSET-13 "-"
*MEAS_COND_AXIS_OFFSET-14 "-"
*MEAS_COND_AXIS_OFFSET-15 "-"
*MEAS_COND_AXIS_OFFSET-16 "-"
*MEAS_COND_AXIS_OFFSET-17 "-"
*MEAS_COND_AXIS_OFFSET-18 "-"
*MEAS_COND_AXIS_OFFSET-19 "-"
*MEAS_COND_AXIS_OFFSET-20 "-"
*MEAS_COND_AXIS_OFFSET-21 "-"
*MEAS_COND_AXIS_OFFSET-22 "-"
*MEAS_COND_AXIS_OFFSET-23 "-"
*MEAS_COND_AXIS_OFFSET-24 "-"
*MEAS_COND_AXIS_OFFSET-25 "-"
*MEAS_COND_AXIS_OFFSET-26 "-"
*MEAS_COND_AXIS_OFFSET-27 "-"
*MEAS_COND_AXIS_OFFSET-28 "-"
*MEAS_COND_AXIS_OFFSET-29 "-"
*MEAS_COND_AXIS_OFFSET-30 "-"
*MEAS_COND_AXIS_POSITION-0 "0.0000000000"
*MEAS_COND_AXIS_POSITION-1 "0.0000000000"
*MEAS_COND_AXIS_POSITION-2 "0.0000000000"
*MEAS_COND_AXIS_POSITION-3 "-0.5500000000"
*MEAS_COND_AXIS_POSITION-4 "0.0000000000"
*MEAS_COND_AXIS_POSITION-5 "0.0000000000"
*MEAS_COND_AXIS_POSITION-6 "0.0000000000"
*MEAS_COND_AXIS_POSITION-7 "-0.4278800000"
*MEAS_COND_AXIS_POSITION-8 "BB"
*MEAS_COND_AXIS_POSITION-9 "0.0000000000"
*MEAS_COND_AXIS_POSITION-10 "Soller_slit_5.0deg"
*MEAS_COND_AXIS_POSITION-11 "2/3deg"
*MEAS_COND_AXIS_POSITION-12 "2.2088000000"
*MEAS_COND_AXIS_POSITION-13 "-0.4140600000"
*MEAS_COND_AXIS_POSITION-14 "0.0000000000"
*MEAS_COND_AXIS_POSITION-15 "10.0mm"
*MEAS_COND_AXIS_POSITION-16 "None"
*MEAS_COND_AXIS_POSITION-17 "Cu_K-beta"
*MEAS_COND_AXIS_POSITION-18 "13.000mm"
*MEAS_COND_AXIS_POSITION-19 "13.000mm"
*MEAS_COND_AXIS_POSITION-20 "No_unit"
*MEAS_COND_AXIS_POSITION-21 "Soller_slit_5.0deg"
*MEAS_COND_AXIS_POSITION-22 "None"
*MEAS_COND_AXIS_POSITION-23 "13.0000000000"
*MEAS_COND_AXIS_POSITION-24 "13.0000000000"
*MEAS_COND_AXIS_POSITION-25 "0.0109400000"
*MEAS_COND_AXIS_POSITION-26 "Open"
*MEAS_COND_AXIS_POSITION-27 "None"
*MEAS_COND_AXIS_POSITION-28 "None"
*MEAS_COND_AXIS_POSITION-29 "None"
*MEAS_COND_AXIS_POSITION-30 "38.0000000000"
*MEAS_COND_AXIS_UNIT-0 "deg"
*MEAS_COND_AXIS_UNIT-1 "deg"
*MEAS_COND_AXIS_UNIT-2 "deg"
*MEAS_COND_AXIS_UNIT-3 "mm"
*MEAS_COND_AXIS_UNIT-4 "deg"
*MEAS_COND_AXIS_UNIT-5 "deg"
*MEAS_COND_AXIS_UNIT-6 "deg"
*MEAS_COND_AXIS_UNIT-7 "mm"
*MEAS_COND_AXIS_UNIT-8 ""
*MEAS_COND_AXIS_UNIT-9 "pulse"
*MEAS_COND_AXIS_UNIT-10 ""
*MEAS_COND_AXIS_UNIT-11 ""
*MEAS_COND_AXIS_UNIT-12 "mm"
*MEAS_COND_AXIS_UNIT-13 "mm"
*MEAS_COND_AXIS_UNIT-14 ""
*MEAS_COND_AXIS_UNIT-15 ""
*MEAS_COND_AXIS_UNIT-16 ""
*MEAS_COND_AXIS_UNIT-17 ""
*MEAS_COND_AXIS_UNIT-18 ""
*MEAS_COND_AXIS_UNIT-19 ""
*MEAS_COND_AXIS_UNIT-20 ""
*MEAS_COND_AXIS_UNIT-21 ""
*MEAS_COND_AXIS_UNIT-22 ""
*MEAS_COND_AXIS_UNIT-23 "mm"
*MEAS_COND_AXIS_UNIT-24 "mm"
*MEAS_COND_AXIS_UNIT-25 "mm"
*MEAS_COND_AXIS_UNIT-26 ""
*MEAS_COND_AXIS_UNIT-27 ""
*MEAS_COND_AXIS_UNIT-28 ""
*MEAS_COND_AXIS_UNIT-29 ""
*MEAS_COND_AXIS_UNIT-30 "div"
*MEAS_COND_COUNTER_CNTLOSS_CORR "0.0000000000"
*MEAS_COND_COUNTER_PHABASE "38.0000000000"
*MEAS_COND_COUNTER_PHAWINDOW "16.0000000000"
*MEAS_COND_COUNTER_PHA_UNIT "div"
*MEAS_COND_COUNTER_TAUDIFF "30.0000000000"
*MEAS_COND_COUNTER_TAUINT "0.0000000000"
*MEAS_COND_IRRADIATION_MODE "OFF"
*MEAS_COND_IRRADIATION_WIDTH ""
*MEAS_COND_OPT_ATTR "集中法"
*MEAS_COND_OPT_NAME "@集中法"
*MEAS_COND_UNSYMMETRIC_MODE "OFF"
*MEAS_COND_XG_CURRENT "30.0000000000"
*MEAS_COND_XG_VOLTAGE "40.0000000000"
*MEAS_COND_XG_WAVE_TYPE "Ka"
*MEAS_DATA_COUNT "5001.0000000000"
*MEAS_SCAN_AXIS_X "2θ/θ"
*MEAS_SCAN_AXIS_X_INTERNAL "TwoThetaTheta"
*MEAS_SCAN_END_TIME "07/14/21 18:37:52"
*MEAS_SCAN_MODE "CONTINUOUS"
*MEAS_SCAN_MONITOR "0"
*MEAS_SCAN_RESOLUTION_X "0.0002"
*MEAS_SCAN_SPEED "1.0"
*MEAS_SCAN_SPEED_UNIT "deg/min"
*MEAS_SCAN_START "20.0000000000"
*MEAS_SCAN_START_TIME "07/14/21 17:44:58"
*MEAS_SCAN_STEP "0.0100000000"
*MEAS_SCAN_STOP "70.0000000000"
*MEAS_SCAN_UNIT_X "deg"
*MEAS_SCAN_UNIT_Y "counts"
*RAS_HEADER_END
*RAS_INT_START
20.0000 1403.0000 1.0000
20.0100 1368.0000 1.0000
20.0200 1374.0000 1.0000
20.0300 1413.0000 1.0000
20.0400 1384.0000 1.0000
20.0500 1407.0000 1.0000
20.0600 1409.0000 1.0000
20.0700 1420.0000 1.0000
20.0800 1392.0000 1.0000
20.0900 1357.0000 1.0000
20.1000 1349.0000 1.0000
20.1100 1358.0000 1.0000
20.1200 1450.0000 1.0000
20.1300 1357.0000 1.0000
20.1400 1395.0000 1.0000
20.1500 1418.0000 1.0000
20.1600 1402.0000 1.0000
20.1700 1418.0000 1.0000
20.1800 1436.0000 1.0000
20.1900 1382.0000 1.0000
20.2000 1411.0000 1.0000
20.2100 1383.0000 1.0000
20.2200 1373.0000 1.0000
20.2300 1407.0000 1.0000
20.2400 1384.0000 1.0000
20.2500 1391.0000 1.0000
20.2600 1449.0000 1.0000
20.2700 1418.0000 1.0000
20.2800 1435.0000 1.0000
20.2900 1413.0000 1.0000
20.3000 1404.0000 1.0000
20.3100 1389.0000 1.0000
20.3200 1466.0000 1.0000
20.3300 1445.0000 1.0000
20.3400 1453.0000 1.0000
20.3500 1390.0000 1.0000
20.3600 1405.0000 1.0000
20.3700 1471.0000 1.0000
20.3800 1401.0000 1.0000
20.3900 1354.0000 1.0000
20.4000 1378.0000 1.0000
20.4100 1419.0000 1.0000
20.4200 1401.0000 1.0000
20.4300 1348.0000 1.0000
20.4400 1357.0000 1.0000
20.4500 1407.0000 1.0000
20.4600 1409.0000 1.0000
20.4700 1400.0000 1.0000
20.4800 1400.0000 1.0000
20.4900 1419.0000 1.0000
20.5000 1438.0000 1.0000
20.5100 1441.0000 1.0000
20.5200 1464.0000 1.0000
20.5300 1394.0000 1.0000
20.5400 1381.0000 1.0000
20.5500 1417.0000 1.0000
20.5600 1414.0000 1.0000
20.5700 1419.0000 1.0000
20.5800 1420.0000 1.0000
20.5900 1441.0000 1.0000
20.6000 1404.0000 1.0000
20.6100 1380.0000 1.0000
20.6200 1454.0000 1.0000
20.6300 1454.0000 1.0000
20.6400 1409.0000 1.0000
20.6500 1367.0000 1.0000
20.6600 1366.0000 1.0000
20.6700 1370.0000 1.0000
20.6800 1389.0000 1.0000
20.6900 1404.0000 1.0000
20.7000 1428.0000 1.0000
20.7100 1380.0000 1.0000
20.7200 1392.0000 1.0000
20.7300 1402.0000 1.0000
20.7400 1479.0000 1.0000
20.7500 1393.0000 1.0000
20.7600 1387.0000 1.0000
20.7700 1391.0000 1.0000
20.7800 1377.0000 1.0000
20.7900 1356.0000 1.0000
20.8000 1410.0000 1.0000
20.8100 1410.0000 1.0000
20.8200 1419.0000 1.0000
20.8300 1366.0000 1.0000
20.8400 1382.0000 1.0000
20.8500 1408.0000 1.0000
20.8600 1466.0000 1.0000
20.8700 1437.0000 1.0000
20.8800 1418.0000 1.0000
20.8900 1444.0000 1.0000
20.9000 1442.0000 1.0000
20.9100 1433.0000 1.0000
20.9200 1350.0000 1.0000
20.9300 1348.0000 1.0000
20.9400 1456.0000 1.0000
20.9500 1419.0000 1.0000
20.9600 1376.0000 1.0000
20.9700 1402.0000 1.0000
20.9800 1410.0000 1.0000
20.9900 1414.0000 1.0000
21.0000 1445.0000 1.0000
21.0100 1395.0000 1.0000
21.0200 1411.0000 1.0000
21.0300 1447.0000 1.0000
21.0400 1401.0000 1.0000
21.0500 1355.0000 1.0000
21.0600 1449.0000 1.0000
21.0700 1383.0000 1.0000
21.0800 1383.0000 1.0000
21.0900 1396.0000 1.0000
21.1000 1455.0000 1.0000
21.1100 1346.0000 1.0000
21.1200 1380.0000 1.0000
21.1300 1426.0000 1.0000
21.1400 1398.0000 1.0000
21.1500 1415.0000 1.0000
21.1600 1362.0000 1.0000
21.1700 1399.0000 1.0000
21.1800 1366.0000 1.0000
21.1900 1409.0000 1.0000
21.2000 1438.0000 1.0000
21.2100 1389.0000 1.0000
21.2200 1346.0000 1.0000
21.2300 1443.0000 1.0000
21.2400 1406.0000 1.0000
21.2500 1345.0000 1.0000
21.2600 1374.0000 1.0000
21.2700 1478.0000 1.0000
21.2800 1370.0000 1.0000
21.2900 1352.0000 1.0000
21.3000 1373.0000 1.0000
21.3100 1424.0000 1.0000
21.3200 1356.0000 1.0000
21.3300 1392.0000 1.0000
21.3400 1441.0000 1.0000
21.3500 1389.0000 1.0000
21.3600 1422.0000 1.0000
21.3700 1403.0000 1.0000
21.3800 1409.0000 1.0000
21.3900 1424.0000 1.0000
21.4000 1393.0000 1.0000
21.4100 1370.0000 1.0000
21.4200 1392.0000 1.0000
21.4300 1371.0000 1.0000
21.4400 1412.0000 1.0000
21.4500 1407.0000 1.0000
21.4600 1397.0000 1.0000
21.4700 1389.0000 1.0000
21.4800 1423.0000 1.0000
21.4900 1376.0000 1.0000
21.5000 1405.0000 1.0000
21.5100 1402.0000 1.0000
21.5200 1457.0000 1.0000
21.5300 1438.0000 1.0000
21.5400 1395.0000 1.0000
21.5500 1424.0000 1.0000
21.5600 1392.0000 1.0000
21.5700 1457.0000 1.0000
21.5800 1360.0000 1.0000
21.5900 1403.0000 1.0000
21.6000 1385.0000 1.0000
21.6100 1419.0000 1.0000
21.6200 1449.0000 1.0000
21.6300 1428.0000 1.0000
21.6400 1435.0000 1.0000
21.6500 1426.0000 1.0000
21.6600 1389.0000 1.0000
21.6700 1403.0000 1.0000
21.6800 1370.0000 1.0000
21.6900 1378.0000 1.0000
21.7000 1401.0000 1.0000
21.7100 1415.0000 1.0000
21.7200 1411.0000 1.0000
21.7300 1386.0000 1.0000
21.7400 1441.0000 1.0000
21.7500 1393.0000 1.0000
21.7600 1333.0000 1.0000
21.7700 1380.0000 1.0000
21.7800 1425.0000 1.0000
21.7900 1400.0000 1.0000
21.8000 1459.0000 1.0000
21.8100 1417.0000 1.0000
21.8200 1448.0000 1.0000
21.8300 1387.0000 1.0000
21.8400 1466.0000 1.0000
21.8500 1418.0000 1.0000
21.8600 1434.0000 1.0000
21.8700 1409.0000 1.0000
21.8800 1358.0000 1.0000
21.8900 1425.0000 1.0000
21.9000 1404.0000 1.0000
21.9100 1441.0000 1.0000
21.9200 1448.0000 1.0000
21.9300 1509.0000 1.0000
21.9400 1462.0000 1.0000
21.9500 1416.0000 1.0000
21.9600 1443.0000 1.0000
21.9700 1437.0000 1.0000
21.9800 1423.0000 1.0000
21.9900 1385.0000 1.0000
22.0000 1415.0000 1.0000
22.0100 1430.0000 1.0000
22.0200 1388.0000 1.0000
22.0300 1498.0000 1.0000
22.0400 1484.0000 1.0000
22.0500 1422.0000 1.0000
22.0600 1369.0000 1.0000
22.0700 1385.0000 1.0000
22.0800 1399.0000 1.0000
22.0900 1414.0000 1.0000
22.1000 1382.0000 1.0000
22.1100 1397.0000 1.0000
22.1200 1373.0000 1.0000
22.1300 1407.0000 1.0000
22.1400 1406.0000 1.0000
22.1500 1375.0000 1.0000
22.1600 1361.0000 1.0000
22.1700 1404.0000 1.0000
22.1800 1443.0000 1.0000
22.1900 1388.0000 1.0000
22.2000 1446.0000 1.0000
22.2100 1434.0000 1.0000
22.2200 1440.0000 1.0000
22.2300 1426.0000 1.0000
22.2400 1461.0000 1.0000
22.2500 1411.0000 1.0000
22.2600 1452.0000 1.0000
22.2700 1455.0000 1.0000
22.2800 1451.0000 1.0000
22.2900 1410.0000 1.0000
22.3000 1442.0000 1.0000
22.3100 1425.0000 1.0000
22.3200 1430.0000 1.0000
22.3300 1446.0000 1.0000
22.3400 1393.0000 1.0000
22.3500 1410.0000 1.0000
22.3600 1392.0000 1.0000
22.3700 1367.0000 1.0000
22.3800 1374.0000 1.0000
22.3900 1373.0000 1.0000
22.4000 1466.0000 1.0000
22.4100 1434.0000 1.0000
22.4200 1421.0000 1.0000
22.4300 1326.0000 1.0000
22.4400 1381.0000 1.0000
22.4500 1423.0000 1.0000
22.4600 1436.0000 1.0000
22.4700 1352.0000 1.0000
22.4800 1421.0000 1.0000
22.4900 1356.0000 1.0000
22.5000 1412.0000 1.0000
22.5100 1410.0000 1.0000
22.5200 1430.0000 1.0000
22.5300 1497.0000 1.0000
22.5400 1463.0000 1.0000
22.5500 1405.0000 1.0000
22.5600 1412.0000 1.0000
22.5700 1366.0000 1.0000
22.5800 1423.0000 1.0000
22.5900 1448.0000 1.0000
22.6000 1481.0000 1.0000
22.6100 1492.0000 1.0000
22.6200 1405.0000 1.0000
22.6300 1419.0000 1.0000
22.6400 1490.0000 1.0000
22.6500 1383.0000 1.0000
22.6600 1421.0000 1.0000
22.6700 1372.0000 1.0000
22.6800 1442.0000 1.0000
22.6900 1448.0000 1.0000
22.7000 1426.0000 1.0000
22.7100 1390.0000 1.0000
22.7200 1418.0000 1.0000
22.7300 1389.0000 1.0000
22.7400 1405.0000 1.0000
22.7500 1385.0000 1.0000
22.7600 1448.0000 1.0000
22.7700 1463.0000 1.0000
22.7800 1436.0000 1.0000
22.7900 1405.0000 1.0000
22.8000 1400.0000 1.0000
22.8100 1459.0000 1.0000
22.8200 1485.0000 1.0000
22.8300 1463.0000 1.0000
22.8400 1465.0000 1.0000
22.8500 1423.0000 1.0000
22.8600 1468.0000 1.0000
22.8700 1440.0000 1.0000
22.8800 1411.0000 1.0000
22.8900 1464.0000 1.0000
22.9000 1488.0000 1.0000
22.9100 1455.0000 1.0000
22.9200 1409.0000 1.0000
22.9300 1439.0000 1.0000
22.9400 1406.0000 1.0000
22.9500 1380.0000 1.0000
22.9600 1438.0000 1.0000
22.9700 1373.0000 1.0000
22.9800 1396.0000 1.0000
22.9900 1472.0000 1.0000
23.0000 1381.0000 1.0000
23.0100 1472.0000 1.0000
23.0200 1466.0000 1.0000
23.0300 1519.0000 1.0000
23.0400 1437.0000 1.0000
23.0500 1404.0000 1.0000
23.0600 1379.0000 1.0000
23.0700 1466.0000 1.0000
23.0800 1396.0000 1.0000
23.0900 1433.0000 1.0000
23.1000 1448.0000 1.0000
23.1100 1470.0000 1.0000
23.1200 1411.0000 1.0000
23.1300 1407.0000 1.0000
23.1400 1448.0000 1.0000
23.1500 1413.0000 1.0000
23.1600 1443.0000 1.0000
23.1700 1389.0000 1.0000
23.1800 1435.0000 1.0000
23.1900 1407.0000 1.0000
23.2000 1451.0000 1.0000
23.2100 1468.0000 1.0000
23.2200 1399.0000 1.0000
23.2300 1441.0000 1.0000
23.2400 1438.0000 1.0000
23.2500 1429.0000 1.0000
23.2600 1375.0000 1.0000
23.2700 1502.0000 1.0000
23.2800 1407.0000 1.0000
23.2900 1365.0000 1.0000
23.3000 1455.0000 1.0000
23.3100 1387.0000 1.0000
23.3200 1462.0000 1.0000
23.3300 1507.0000 1.0000
23.3400 1469.0000 1.0000
23.3500 1452.0000 1.0000
23.3600 1417.0000 1.0000
23.3700 1436.0000 1.0000
23.3800 1486.0000 1.0000
23.3900 1450.0000 1.0000
23.4000 1469.0000 1.0000
23.4100 1460.0000 1.0000
23.4200 1443.0000 1.0000
23.4300 1464.0000 1.0000
23.4400 1498.0000 1.0000
23.4500 1452.0000 1.0000
23.4600 1477.0000 1.0000
23.4700 1475.0000 1.0000
23.4800 1524.0000 1.0000
23.4900 1439.0000 1.0000
23.5000 1418.0000 1.0000
23.5100 1433.0000 1.0000
23.5200 1443.0000 1.0000
23.5300 1423.0000 1.0000
23.5400 1400.0000 1.0000
23.5500 1455.0000 1.0000
23.5600 1429.0000 1.0000
23.5700 1442.0000 1.0000
23.5800 1387.0000 1.0000
23.5900 1474.0000 1.0000
23.6000 1415.0000 1.0000
23.6100 1391.0000 1.0000
23.6200 1475.0000 1.0000
23.6300 1447.0000 1.0000
23.6400 1420.0000 1.0000
23.6500 1431.0000 1.0000
23.6600 1421.0000 1.0000
23.6700 1475.0000 1.0000
23.6800 1441.0000 1.0000
23.6900 1456.0000 1.0000
23.7000 1414.0000 1.0000
23.7100 1456.0000 1.0000
23.7200 1411.0000 1.0000
23.7300 1424.0000 1.0000
23.7400 1421.0000 1.0000
23.7500 1407.0000 1.0000
23.7600 1461.0000 1.0000
23.7700 1444.0000 1.0000
23.7800 1399.0000 1.0000
23.7900 1413.0000 1.0000
23.8000 1442.0000 1.0000
23.8100 1469.0000 1.0000
23.8200 1426.0000 1.0000
23.8300 1437.0000 1.0000
23.8400 1460.0000 1.0000
23.8500 1440.0000 1.0000
23.8600 1412.0000 1.0000
23.8700 1438.0000 1.0000
23.8800 1461.0000 1.0000
23.8900 1431.0000 1.0000
23.9000 1472.0000 1.0000
23.9100 1433.0000 1.0000
23.9200 1440.0000 1.0000
23.9300 1494.0000 1.0000
23.9400 1468.0000 1.0000
23.9500 1414.0000 1.0000
23.9600 1452.0000 1.0000
23.9700 1437.0000 1.0000
23.9800 1466.0000 1.0000
23.9900 1449.0000 1.0000
24.0000 1421.0000 1.0000
24.0100 1498.0000 1.0000
24.0200 1462.0000 1.0000
24.0300 1432.0000 1.0000
24.0400 1455.0000 1.0000
24.0500 1419.0000 1.0000
24.0600 1402.0000 1.0000
24.0700 1454.0000 1.0000
24.0800 1394.0000 1.0000
24.0900 1430.0000 1.0000
24.1000 1432.0000 1.0000
24.1100 1521.0000 1.0000
24.1200 1504.0000 1.0000
24.1300 1497.0000 1.0000
24.1400 1458.0000 1.0000
24.1500 1474.0000 1.0000
24.1600 1443.0000 1.0000
24.1700 1443.0000 1.0000
24.1800 1439.0000 1.0000
24.1900 1507.0000 1.0000
24.2000 1426.0000 1.0000
24.2100 1458.0000 1.0000
24.2200 1401.0000 1.0000
24.2300 1410.0000 1.0000
24.2400 1405.0000 1.0000
24.2500 1418.0000 1.0000
24.2600 1434.0000 1.0000
24.2700 1465.0000 1.0000
24.2800 1527.0000 1.0000
24.2900 1425.0000 1.0000
24.3000 1423.0000 1.0000
24.3100 1413.0000 1.0000
24.3200 1477.0000 1.0000
24.3300 1456.0000 1.0000
24.3400 1396.0000 1.0000
24.3500 1482.0000 1.0000
24.3600 1462.0000 1.0000
24.3700 1433.0000 1.0000
24.3800 1468.0000 1.0000
24.3900 1384.0000 1.0000
24.4000 1446.0000 1.0000
24.4100 1455.0000 1.0000
24.4200 1489.0000 1.0000
24.4300 1467.0000 1.0000
24.4400 1458.0000 1.0000
24.4500 1464.0000 1.0000
24.4600 1477.0000 1.0000
24.4700 1427.0000 1.0000
24.4800 1482.0000 1.0000
24.4900 1518.0000 1.0000
24.5000 1429.0000 1.0000
24.5100 1398.0000 1.0000
24.5200 1429.0000 1.0000
24.5300 1470.0000 1.0000
24.5400 1398.0000 1.0000
24.5500 1447.0000 1.0000
24.5600 1465.0000 1.0000
24.5700 1430.0000 1.0000
24.5800 1392.0000 1.0000
24.5900 1472.0000 1.0000
24.6000 1477.0000 1.0000
24.6100 1405.0000 1.0000
24.6200 1438.0000 1.0000
24.6300 1504.0000 1.0000
24.6400 1502.0000 1.0000
24.6500 1552.0000 1.0000
24.6600 1530.0000 1.0000
24.6700 1496.0000 1.0000
24.6800 1473.0000 1.0000
24.6900 1503.0000 1.0000
24.7000 1498.0000 1.0000
24.7100 1478.0000 1.0000
24.7200 1461.0000 1.0000
24.7300 1469.0000 1.0000
24.7400 1531.0000 1.0000
24.7500 1486.0000 1.0000
24.7600 1477.0000 1.0000
24.7700 1477.0000 1.0000
24.7800 1500.0000 1.0000
24.7900 1484.0000 1.0000
24.8000 1473.0000 1.0000
24.8100 1406.0000 1.0000
24.8200 1423.0000 1.0000
24.8300 1448.0000 1.0000
24.8400 1451.0000 1.0000
24.8500 1440.0000 1.0000
24.8600 1440.0000 1.0000
24.8700 1461.0000 1.0000
24.8800 1462.0000 1.0000
24.8900 1470.0000 1.0000
24.9000 1509.0000 1.0000
24.9100 1468.0000 1.0000
24.9200 1486.0000 1.0000
24.9300 1520.0000 1.0000
24.9400 1513.0000 1.0000
24.9500 1519.0000 1.0000
24.9600 1502.0000 1.0000
24.9700 1461.0000 1.0000
24.9800 1474.0000 1.0000
24.9900 1552.0000 1.0000
25.0000 1479.0000 1.0000
25.0100 1496.0000 1.0000
25.0200 1449.0000 1.0000
25.0300 1410.0000 1.0000
25.0400 1500.0000 1.0000
25.0500 1475.0000 1.0000
25.0600 1493.0000 1.0000
25.0700 1523.0000 1.0000
25.0800 1484.0000 1.0000
25.0900 1496.0000 1.0000
25.1000 1509.0000 1.0000
25.1100 1455.0000 1.0000
25.1200 1513.0000 1.0000
25.1300 1525.0000 1.0000
25.1400 1556.0000 1.0000
25.1500 1491.0000 1.0000
25.1600 1522.0000 1.0000
25.1700 1548.0000 1.0000
25.1800 1530.0000 1.0000
25.1900 1493.0000 1.0000
25.2000 1520.0000 1.0000
25.2100 1534.0000 1.0000
25.2200 1487.0000 1.0000
25.2300 1453.0000 1.0000
25.2400 1500.0000 1.0000
25.2500 1494.0000 1.0000
25.2600 1502.0000 1.0000
25.2700 1504.0000 1.0000
25.2800 1469.0000 1.0000
25.2900 1500.0000 1.0000
25.3000 1513.0000 1.0000
25.3100 1507.0000 1.0000
25.3200 1494.0000 1.0000
25.3300 1463.0000 1.0000
25.3400 1477.0000 1.0000
25.3500 1466.0000 1.0000
25.3600 1459.0000 1.0000
25.3700 1438.0000 1.0000
25.3800 1510.0000 1.0000
25.3900 1444.0000 1.0000
25.4000 1438.0000 1.0000
25.4100 1460.0000 1.0000
25.4200 1477.0000 1.0000
25.4300 1489.0000 1.0000
25.4400 1511.0000 1.0000
25.4500 1502.0000 1.0000
25.4600 1502.0000 1.0000
25.4700 1511.0000 1.0000
25.4800 1521.0000 1.0000
25.4900 1482.0000 1.0000
25.5000 1508.0000 1.0000
25.5100 1478.0000 1.0000
25.5200 1407.0000 1.0000
25.5300 1526.0000 1.0000
25.5400 1472.0000 1.0000
25.5500 1465.0000 1.0000
25.5600 1431.0000 1.0000
25.5700 1486.0000 1.0000
25.5800 1477.0000 1.0000
25.5900 1462.0000 1.0000
25.6000 1492.0000 1.0000
25.6100 1476.0000 1.0000
25.6200 1462.0000 1.0000
25.6300 1447.0000 1.0000
25.6400 1449.0000 1.0000
25.6500 1453.0000 1.0000
25.6600 1512.0000 1.0000
25.6700 1472.0000 1.0000
25.6800 1445.0000 1.0000
25.6900 1498.0000 1.0000
25.7000 1545.0000 1.0000
25.7100 1484.0000 1.0000
25.7200 1521.0000 1.0000
25.7300 1489.0000 1.0000
25.7400 1459.0000 1.0000
25.7500 1467.0000 1.0000
25.7600 1496.0000 1.0000
25.7700 1498.0000 1.0000
25.7800 1542.0000 1.0000
25.7900 1484.0000 1.0000
25.8000 1469.0000 1.0000
25.8100 1459.0000 1.0000
25.8200 1435.0000 1.0000
25.8300 1439.0000 1.0000
25.8400 1510.0000 1.0000
25.8500 1484.0000 1.0000
25.8600 1511.0000 1.0000
25.8700 1432.0000 1.0000
25.8800 1473.0000 1.0000
25.8900 1446.0000 1.0000
25.9000 1510.0000 1.0000
25.9100 1473.0000 1.0000
25.9200 1552.0000 1.0000
25.9300 1448.0000 1.0000
25.9400 1471.0000 1.0000
25.9500 1446.0000 1.0000
25.9600 1457.0000 1.0000
25.9700 1497.0000 1.0000
25.9800 1428.0000 1.0000
25.9900 1553.0000 1.0000
26.0000 1480.0000 1.0000
26.0100 1447.0000 1.0000
26.0200 1529.0000 1.0000
26.0300 1529.0000 1.0000
26.0400 1486.0000 1.0000
26.0500 1521.0000 1.0000
26.0600 1508.0000 1.0000
26.0700 1533.0000 1.0000
26.0800 1509.0000 1.0000
26.0900 1434.0000 1.0000
26.1000 1466.0000 1.0000
26.1100 1527.0000 1.0000
26.1200 1486.0000 1.0000
26.1300 1526.0000 1.0000
26.1400 1484.0000 1.0000
26.1500 1451.0000 1.0000
26.1600 1536.0000 1.0000
26.1700 1504.0000 1.0000
26.1800 1534.0000 1.0000
26.1900 1495.0000 1.0000
26.2000 1468.0000 1.0000
26.2100 1529.0000 1.0000
26.2200 1523.0000 1.0000
26.2300 1507.0000 1.0000
26.2400 1488.0000 1.0000
26.2500 1527.0000 1.0000
26.2600 1545.0000 1.0000
26.2700 1549.0000 1.0000
26.2800 1538.0000 1.0000
26.2900 1549.0000 1.0000
26.3000 1510.0000 1.0000
26.3100 1447.0000 1.0000
26.3200 1510.0000 1.0000
26.3300 1519.0000 1.0000
26.3400 1498.0000 1.0000
26.3500 1537.0000 1.0000
26.3600 1610.0000 1.0000
26.3700 1529.0000 1.0000
26.3800 1490.0000 1.0000
26.3900 1529.0000 1.0000
26.4000 1551.0000 1.0000
26.4100 1544.0000 1.0000
26.4200 1506.0000 1.0000
26.4300 1565.0000 1.0000
26.4400 1638.0000 1.0000
26.4500 1482.0000 1.0000
26.4600 1538.0000 1.0000
26.4700 1553.0000 1.0000
26.4800 1505.0000 1.0000
26.4900 1541.0000 1.0000
26.5000 1576.0000 1.0000
26.5100 1545.0000 1.0000
26.5200 1516.0000 1.0000
26.5300 1591.0000 1.0000
26.5400 1533.0000 1.0000
26.5500 1578.0000 1.0000
26.5600 1633.0000 1.0000
26.5700 1528.0000 1.0000
26.5800 1563.0000 1.0000
26.5900 1592.0000 1.0000
26.6000 1584.0000 1.0000
26.6100 1613.0000 1.0000
26.6200 1592.0000 1.0000
26.6300 1546.0000 1.0000
26.6400 1646.0000 1.0000
26.6500 1640.0000 1.0000
26.6600 1574.0000 1.0000
26.6700 1584.0000 1.0000
26.6800 1689.0000 1.0000
26.6900 1603.0000 1.0000
26.7000 1638.0000 1.0000
26.7100 1613.0000 1.0000
26.7200 1585.0000 1.0000
26.7300 1703.0000 1.0000
26.7400 1646.0000 1.0000
26.7500 1628.0000 1.0000
26.7600 1644.0000 1.0000
26.7700 1699.0000 1.0000
26.7800 1671.0000 1.0000
26.7900 1687.0000 1.0000
26.8000 1632.0000 1.0000
26.8100 1742.0000 1.0000
26.8200 1612.0000 1.0000
26.8300 1601.0000 1.0000
26.8400 1662.0000 1.0000
26.8500 1771.0000 1.0000
26.8600 1724.0000 1.0000
26.8700 1733.0000 1.0000
26.8800 1707.0000 1.0000
26.8900 1731.0000 1.0000
26.9000 1793.0000 1.0000
26.9100 1808.0000 1.0000
26.9200 1744.0000 1.0000
26.9300 1814.0000 1.0000
26.9400 1840.0000 1.0000
26.9500 1778.0000 1.0000
26.9600 1879.0000 1.0000
26.9700 2027.0000 1.0000
26.9800 1955.0000 1.0000
26.9900 2042.0000 1.0000
27.0000 2034.0000 1.0000
27.0100 2034.0000 1.0000
27.0200 2120.0000 1.0000
27.0300 2199.0000 1.0000
27.0400 2153.0000 1.0000
27.0500 2313.0000 1.0000
27.0600 2426.0000 1.0000
27.0700 2376.0000 1.0000
27.0800 2523.0000 1.0000
27.0900 2584.0000 1.0000
27.1000 2646.0000 1.0000
27.1100 2834.0000 1.0000
27.1200 2902.0000 1.0000
27.1300 3076.0000 1.0000
27.1400 3189.0000 1.0000
27.1500 3312.0000 1.0000
27.1600 3487.0000 1.0000
27.1700 3743.0000 1.0000
27.1800 3972.0000 1.0000
27.1900 4147.0000 1.0000
27.2000 4404.0000 1.0000
27.2100 4630.0000 1.0000
27.2200 5001.0000 1.0000
27.2300 5173.0000 1.0000
27.2400 5549.0000 1.0000
27.2500 5761.0000 1.0000
27.2600 6069.0000 1.0000
27.2700 6127.0000 1.0000
27.2800 6500.0000 1.0000
27.2900 6517.0000 1.0000
27.3000 6514.0000 1.0000
27.3100 6367.0000 1.0000
27.3200 6252.0000 1.0000
27.3300 6150.0000 1.0000
27.3400 5883.0000 1.0000
27.3500 5807.0000 1.0000
27.3600 5453.0000 1.0000
27.3700 5215.0000 1.0000
27.3800 4995.0000 1.0000
27.3900 4547.0000 1.0000
27.4000 4289.0000 1.0000
27.4100 4215.0000 1.0000
27.4200 3814.0000 1.0000
27.4300 3633.0000 1.0000
27.4400 3411.0000 1.0000
27.4500 3286.0000 1.0000
27.4600 3236.0000 1.0000
27.4700 3008.0000 1.0000
27.4800 2813.0000 1.0000
27.4900 2820.0000 1.0000
27.5000 2780.0000 1.0000
27.5100 2525.0000 1.0000
27.5200 2557.0000 1.0000
27.5300 2482.0000 1.0000
27.5400 2398.0000 1.0000
27.5500 2316.0000 1.0000
27.5600 2248.0000 1.0000
27.5700 2123.0000 1.0000
27.5800 2174.0000 1.0000
27.5900 2094.0000 1.0000
27.6000 2041.0000 1.0000
27.6100 2060.0000 1.0000
27.6200 1982.0000 1.0000
27.6300 1966.0000 1.0000
27.6400 1958.0000 1.0000
27.6500 1868.0000 1.0000
27.6600 1813.0000 1.0000
27.6700 1813.0000 1.0000
27.6800 1811.0000 1.0000
27.6900 1714.0000 1.0000
27.7000 1750.0000 1.0000
27.7100 1803.0000 1.0000
27.7200 1775.0000 1.0000
27.7300 1725.0000 1.0000
27.7400 1718.0000 1.0000
27.7500 1737.0000 1.0000
27.7600 1691.0000 1.0000
27.7700 1693.0000 1.0000
27.7800 1681.0000 1.0000
27.7900 1669.0000 1.0000
27.8000 1639.0000 1.0000
27.8100 1631.0000 1.0000
27.8200 1675.0000 1.0000
27.8300 1664.0000 1.0000
27.8400 1587.0000 1.0000
27.8500 1612.0000 1.0000
27.8600 1544.0000 1.0000
27.8700 1562.0000 1.0000
27.8800 1619.0000 1.0000
27.8900 1576.0000 1.0000
27.9000 1566.0000 1.0000
27.9100 1638.0000 1.0000
27.9200 1555.0000 1.0000
27.9300 1520.0000 1.0000
27.9400 1617.0000 1.0000
27.9500 1616.0000 1.0000
27.9600 1589.0000 1.0000
27.9700 1565.0000 1.0000
27.9800 1478.0000 1.0000
27.9900 1531.0000 1.0000
28.0000 1580.0000 1.0000
28.0100 1571.0000 1.0000
28.0200 1588.0000 1.0000
28.0300 1573.0000 1.0000
28.0400 1575.0000 1.0000
28.0500 1506.0000 1.0000
28.0600 1498.0000 1.0000
28.0700 1523.0000 1.0000
28.0800 1552.0000 1.0000
28.0900 1498.0000 1.0000
28.1000 1549.0000 1.0000
28.1100 1502.0000 1.0000
28.1200 1473.0000 1.0000
28.1300 1478.0000 1.0000
28.1400 1492.0000 1.0000
28.1500 1531.0000 1.0000
28.1600 1560.0000 1.0000
28.1700 1488.0000 1.0000
28.1800 1492.0000 1.0000
28.1900 1551.0000 1.0000
28.2000 1504.0000 1.0000
28.2100 1485.0000 1.0000
28.2200 1468.0000 1.0000
28.2300 1499.0000 1.0000
28.2400 1524.0000 1.0000
28.2500 1548.0000 1.0000
28.2600 1475.0000 1.0000
28.2700 1459.0000 1.0000
28.2800 1472.0000 1.0000
28.2900 1407.0000 1.0000
28.3000 1486.0000 1.0000
28.3100 1435.0000 1.0000
28.3200 1476.0000 1.0000
28.3300 1487.0000 1.0000
28.3400 1474.0000 1.0000
28.3500 1453.0000 1.0000
28.3600 1439.0000 1.0000
28.3700 1503.0000 1.0000
28.3800 1443.0000 1.0000
28.3900 1397.0000 1.0000
28.4000 1434.0000 1.0000
28.4100 1478.0000 1.0000
28.4200 1454.0000 1.0000
28.4300 1478.0000 1.0000
28.4400 1464.0000 1.0000
28.4500 1486.0000 1.0000
28.4600 1442.0000 1.0000
28.4700 1476.0000 1.0000
28.4800 1417.0000 1.0000
28.4900 1459.0000 1.0000
28.5000 1470.0000 1.0000
28.5100 1436.0000 1.0000
28.5200 1426.0000 1.0000
28.5300 1424.0000 1.0000
28.5400 1441.0000 1.0000
28.5500 1448.0000 1.0000
28.5600 1418.0000 1.0000
28.5700 1435.0000 1.0000
28.5800 1459.0000 1.0000
28.5900 1471.0000 1.0000
28.6000 1418.0000 1.0000
28.6100 1450.0000 1.0000
28.6200 1373.0000 1.0000
28.6300 1423.0000 1.0000
28.6400 1465.0000 1.0000
28.6500 1453.0000 1.0000
28.6600 1393.0000 1.0000
28.6700 1415.0000 1.0000
28.6800 1443.0000 1.0000
28.6900 1456.0000 1.0000
28.7000 1461.0000 1.0000
28.7100 1450.0000 1.0000
28.7200 1440.0000 1.0000
28.7300 1436.0000 1.0000
28.7400 1424.0000 1.0000
28.7500 1476.0000 1.0000
28.7600 1451.0000 1.0000
28.7700 1463.0000 1.0000
28.7800 1392.0000 1.0000
28.7900 1410.0000 1.0000
28.8000 1407.0000 1.0000
28.8100 1366.0000 1.0000
28.8200 1444.0000 1.0000
28.8300 1470.0000 1.0000
28.8400 1377.0000 1.0000
28.8500 1413.0000 1.0000
28.8600 1480.0000 1.0000
28.8700 1396.0000 1.0000
28.8800 1455.0000 1.0000
28.8900 1371.0000 1.0000
28.9000 1394.0000 1.0000
28.9100 1406.0000 1.0000
28.9200 1404.0000 1.0000
28.9300 1428.0000 1.0000
28.9400 1419.0000 1.0000
28.9500 1399.0000 1.0000
28.9600 1378.0000 1.0000
28.9700 1383.0000 1.0000
28.9800 1409.0000 1.0000
28.9900 1483.0000 1.0000
29.0000 1429.0000 1.0000
29.0100 1391.0000 1.0000
29.0200 1384.0000 1.0000
29.0300 1395.0000 1.0000
29.0400 1398.0000 1.0000
29.0500 1466.0000 1.0000
29.0600 1502.0000 1.0000
29.0700 1464.0000 1.0000
29.0800 1543.0000 1.0000
29.0900 1599.0000 1.0000
29.1000 1517.0000 1.0000
29.1100 1612.0000 1.0000
29.1200 1615.0000 1.0000
29.1300 1589.0000 1.0000
29.1400 1616.0000 1.0000
29.1500 1579.0000 1.0000
29.1600 1638.0000 1.0000
29.1700 1514.0000 1.0000
29.1800 1574.0000 1.0000
29.1900 1499.0000 1.0000
29.2000 1512.0000 1.0000
29.2100 1466.0000 1.0000
29.2200 1505.0000 1.0000
29.2300 1385.0000 1.0000
29.2400 1428.0000 1.0000
29.2500 1358.0000 1.0000
29.2600 1415.0000 1.0000
29.2700 1401.0000 1.0000
29.2800 1385.0000 1.0000
29.2900 1352.0000 1.0000
29.3000 1442.0000 1.0000
29.3100 1389.0000 1.0000
29.3200 1431.0000 1.0000
29.3300 1400.0000 1.0000
29.3400 1408.0000 1.0000
29.3500 1414.0000 1.0000
29.3600 1410.0000 1.0000
29.3700 1383.0000 1.0000
29.3800 1393.0000 1.0000
29.3900 1392.0000 1.0000
29.4000 1342.0000 1.0000
29.4100 1368.0000 1.0000
29.4200 1368.0000 1.0000
29.4300 1368.0000 1.0000
29.4400 1427.0000 1.0000
29.4500 1347.0000 1.0000
29.4600 1421.0000 1.0000
29.4700 1363.0000 1.0000
29.4800 1405.0000 1.0000
29.4900 1374.0000 1.0000
29.5000 1378.0000 1.0000
29.5100 1388.0000 1.0000
29.5200 1405.0000 1.0000
29.5300 1421.0000 1.0000
29.5400 1371.0000 1.0000
29.5500 1408.0000 1.0000
29.5600 1306.0000 1.0000
29.5700 1308.0000 1.0000
29.5800 1297.0000 1.0000
29.5900 1354.0000 1.0000
29.6000 1329.0000 1.0000
29.6100 1328.0000 1.0000
29.6200 1329.0000 1.0000
29.6300 1349.0000 1.0000
29.6400 1319.0000 1.0000
29.6500 1403.0000 1.0000
29.6600 1420.0000 1.0000
29.6700 1340.0000 1.0000
29.6800 1362.0000 1.0000
29.6900 1392.0000 1.0000
29.7000 1340.0000 1.0000
29.7100 1336.0000 1.0000
29.7200 1341.0000 1.0000
29.7300 1372.0000 1.0000
29.7400 1341.0000 1.0000
29.7500 1359.0000 1.0000
29.7600 1363.0000 1.0000
29.7700 1397.0000 1.0000
29.7800 1327.0000 1.0000
29.7900 1370.0000 1.0000
29.8000 1337.0000 1.0000
29.8100 1373.0000 1.0000
29.8200 1359.0000 1.0000
29.8300 1328.0000 1.0000
29.8400 1362.0000 1.0000
29.8500 1400.0000 1.0000
29.8600 1380.0000 1.0000
29.8700 1333.0000 1.0000
29.8800 1367.0000 1.0000
29.8900 1387.0000 1.0000
29.9000 1366.0000 1.0000
29.9100 1327.0000 1.0000
29.9200 1317.0000 1.0000
29.9300 1325.0000 1.0000
29.9400 1377.0000 1.0000
29.9500 1344.0000 1.0000
29.9600 1328.0000 1.0000
29.9700 1291.0000 1.0000
29.9800 1390.0000 1.0000
29.9900 1345.0000 1.0000
30.0000 1355.0000 1.0000
30.0100 1399.0000 1.0000
30.0200 1343.0000 1.0000
30.0300 1312.0000 1.0000
30.0400 1336.0000 1.0000
30.0500 1393.0000 1.0000
30.0600 1323.0000 1.0000
30.0700 1353.0000 1.0000
30.0800 1276.0000 1.0000
30.0900 1363.0000 1.0000
30.1000 1351.0000 1.0000
30.1100 1347.0000 1.0000
30.1200 1367.0000 1.0000
30.1300 1327.0000 1.0000
30.1400 1373.0000 1.0000
30.1500 1288.0000 1.0000
30.1600 1245.0000 1.0000
30.1700 1387.0000 1.0000
30.1800 1382.0000 1.0000
30.1900 1366.0000 1.0000
30.2000 1295.0000 1.0000
30.2100 1318.0000 1.0000
30.2200 1347.0000 1.0000
30.2300 1356.0000 1.0000
30.2400 1346.0000 1.0000
30.2500 1360.0000 1.0000
30.2600 1310.0000 1.0000
30.2700 1294.0000 1.0000
30.2800 1456.0000 1.0000
30.2900 1351.0000 1.0000
30.3000 1296.0000 1.0000
30.3100 1283.0000 1.0000
30.3200 1269.0000 1.0000
30.3300 1347.0000 1.0000
30.3400 1361.0000 1.0000
30.3500 1280.0000 1.0000
30.3600 1296.0000 1.0000
30.3700 1291.0000 1.0000
30.3800 1329.0000 1.0000
30.3900 1392.0000 1.0000
30.4000 1293.0000 1.0000
30.4100 1344.0000 1.0000
30.4200 1293.0000 1.0000
30.4300 1329.0000 1.0000
30.4400 1254.0000 1.0000
30.4500 1292.0000 1.0000
30.4600 1306.0000 1.0000
30.4700 1265.0000 1.0000
30.4800 1330.0000 1.0000
30.4900 1289.0000 1.0000
30.5000 1319.0000 1.0000
30.5100 1286.0000 1.0000
30.5200 1285.0000 1.0000
30.5300 1340.0000 1.0000
30.5400 1295.0000 1.0000
30.5500 1285.0000 1.0000
30.5600 1294.0000 1.0000
30.5700 1346.0000 1.0000
30.5800 1304.0000 1.0000
30.5900 1276.0000 1.0000
30.6000 1282.0000 1.0000
30.6100 1314.0000 1.0000
30.6200 1321.0000 1.0000
30.6300 1301.0000 1.0000
30.6400 1285.0000 1.0000
30.6500 1320.0000 1.0000
30.6600 1260.0000 1.0000
30.6700 1340.0000 1.0000
30.6800 1317.0000 1.0000
30.6900 1260.0000 1.0000
30.7000 1315.0000 1.0000
30.7100 1307.0000 1.0000
30.7200 1295.0000 1.0000
30.7300 1327.0000 1.0000
30.7400 1338.0000 1.0000
30.7500 1308.0000 1.0000
30.7600 1330.0000 1.0000
30.7700 1329.0000 1.0000
30.7800 1305.0000 1.0000
30.7900 1275.0000 1.0000
30.8000 1284.0000 1.0000
30.8100 1291.0000 1.0000
30.8200 1348.0000 1.0000
30.8300 1299.0000 1.0000
30.8400 1275.0000 1.0000
30.8500 1313.0000 1.0000
30.8600 1242.0000 1.0000
30.8700 1300.0000 1.0000
30.8800 1296.0000 1.0000
30.8900 1234.0000 1.0000
30.9000 1294.0000 1.0000
30.9100 1366.0000 1.0000
30.9200 1333.0000 1.0000
30.9300 1214.0000 1.0000
30.9400 1264.0000 1.0000
30.9500 1315.0000 1.0000
30.9600 1293.0000 1.0000
30.9700 1353.0000 1.0000
30.9800 1250.0000 1.0000
30.9900 1317.0000 1.0000
31.0000 1304.0000 1.0000
31.0100 1228.0000 1.0000
31.0200 1247.0000 1.0000
31.0300 1260.0000 1.0000
31.0400 1267.0000 1.0000
31.0500 1304.0000 1.0000
31.0600 1258.0000 1.0000
31.0700 1288.0000 1.0000
31.0800 1299.0000 1.0000
31.0900 1309.0000 1.0000
31.1000 1332.0000 1.0000
31.1100 1294.0000 1.0000
31.1200 1313.0000 1.0000
31.1300 1354.0000 1.0000
31.1400 1315.0000 1.0000
31.1500 1281.0000 1.0000
31.1600 1308.0000 1.0000
31.1700 1273.0000 1.0000
31.1800 1280.0000 1.0000
31.1900 1287.0000 1.0000
31.2000 1280.0000 1.0000
31.2100 1250.0000 1.0000
31.2200 1272.0000 1.0000
31.2300 1271.0000 1.0000
31.2400 1323.0000 1.0000
31.2500 1298.0000 1.0000
31.2600 1312.0000 1.0000
31.2700 1299.0000 1.0000
31.2800 1269.0000 1.0000
31.2900 1277.0000 1.0000
31.3000 1271.0000 1.0000
31.3100 1279.0000 1.0000
31.3200 1225.0000 1.0000
31.3300 1259.0000 1.0000
31.3400 1358.0000 1.0000
31.3500 1260.0000 1.0000
31.3600 1314.0000 1.0000
31.3700 1263.0000 1.0000
31.3800 1270.0000 1.0000
31.3900 1271.0000 1.0000
31.4000 1257.0000 1.0000
31.4100 1257.0000 1.0000
31.4200 1266.0000 1.0000
31.4300 1274.0000 1.0000
31.4400 1262.0000 1.0000
31.4500 1242.0000 1.0000
31.4600 1268.0000 1.0000
31.4700 1310.0000 1.0000
31.4800 1273.0000 1.0000
31.4900 1253.0000 1.0000
31.5000 1277.0000 1.0000
31.5100 1218.0000 1.0000
31.5200 1190.0000 1.0000
31.5300 1252.0000 1.0000
31.5400 1278.0000 1.0000
31.5500 1245.0000 1.0000
31.5600 1277.0000 1.0000
31.5700 1241.0000 1.0000
31.5800 1236.0000 1.0000
31.5900 1278.0000 1.0000
31.6000 1289.0000 1.0000
31.6100 1281.0000 1.0000
31.6200 1276.0000 1.0000
31.6300 1314.0000 1.0000
31.6400 1241.0000 1.0000
31.6500 1212.0000 1.0000
31.6600 1256.0000 1.0000
31.6700 1246.0000 1.0000
31.6800 1230.0000 1.0000
31.6900 1249.0000 1.0000
31.7000 1214.0000 1.0000
31.7100 1208.0000 1.0000
31.7200 1194.0000 1.0000
31.7300 1247.0000 1.0000
31.7400 1224.0000 1.0000
31.7500 1238.0000 1.0000
31.7600 1283.0000 1.0000
31.7700 1246.0000 1.0000
31.7800 1259.0000 1.0000
31.7900 1257.0000 1.0000
31.8000 1264.0000 1.0000
31.8100 1225.0000 1.0000
31.8200 1252.0000 1.0000
31.8300 1174.0000 1.0000
31.8400 1253.0000 1.0000
31.8500 1272.0000 1.0000
31.8600 1310.0000 1.0000
31.8700 1300.0000 1.0000
31.8800 1331.0000 1.0000
31.8900 1298.0000 1.0000
31.9000 1275.0000 1.0000
31.9100 1225.0000 1.0000
31.9200 1212.0000 1.0000
31.9300 1265.0000 1.0000
31.9400 1235.0000 1.0000
31.9500 1305.0000 1.0000
31.9600 1252.0000 1.0000
31.9700 1293.0000 1.0000
31.9800 1281.0000 1.0000
31.9900 1272.0000 1.0000
32.0000 1229.0000 1.0000
32.0100 1288.0000 1.0000
32.0200 1269.0000 1.0000
32.0300 1246.0000 1.0000
32.0400 1251.0000 1.0000
32.0500 1291.0000 1.0000
32.0600 1228.0000 1.0000
32.0700 1226.0000 1.0000
32.0800 1265.0000 1.0000
32.0900 1281.0000 1.0000
32.1000 1276.0000 1.0000
32.1100 1248.0000 1.0000
32.1200 1226.0000 1.0000
32.1300 1248.0000 1.0000
32.1400 1213.0000 1.0000
32.1500 1235.0000 1.0000
32.1600 1239.0000 1.0000
32.1700 1200.0000 1.0000
32.1800 1271.0000 1.0000
32.1900 1252.0000 1.0000
32.2000 1214.0000 1.0000
32.2100 1234.0000 1.0000
32.2200 1257.0000 1.0000
32.2300 1232.0000 1.0000
32.2400 1183.0000 1.0000
32.2500 1235.0000 1.0000
32.2600 1229.0000 1.0000
32.2700 1186.0000 1.0000
32.2800 1218.0000 1.0000
32.2900 1213.0000 1.0000
32.3000 1229.0000 1.0000
32.3100 1229.0000 1.0000
32.3200 1279.0000 1.0000
32.3300 1238.0000 1.0000
32.3400 1213.0000 1.0000
32.3500 1250.0000 1.0000
32.3600 1243.0000 1.0000
32.3700 1197.0000 1.0000
32.3800 1179.0000 1.0000
32.3900 1204.0000 1.0000
32.4000 1285.0000 1.0000
32.4100 1259.0000 1.0000
32.4200 1201.0000 1.0000
32.4300 1211.0000 1.0000
32.4400 1235.0000 1.0000
32.4500 1234.0000 1.0000
32.4600 1206.0000 1.0000
32.4700 1190.0000 1.0000
32.4800 1201.0000 1.0000
32.4900 1185.0000 1.0000
32.5000 1216.0000 1.0000
32.5100 1222.0000 1.0000
32.5200 1179.0000 1.0000
32.5300 1202.0000 1.0000
32.5400 1209.0000 1.0000
32.5500 1190.0000 1.0000
32.5600 1209.0000 1.0000
32.5700 1183.0000 1.0000
32.5800 1224.0000 1.0000
32.5900 1211.0000 1.0000
32.6000 1210.0000 1.0000
32.6100 1167.0000 1.0000
32.6200 1191.0000 1.0000
32.6300 1172.0000 1.0000
32.6400 1217.0000 1.0000
32.6500 1232.0000 1.0000
32.6600 1188.0000 1.0000
32.6700 1151.0000 1.0000
32.6800 1171.0000 1.0000
32.6900 1162.0000 1.0000
32.7000 1211.0000 1.0000
32.7100 1233.0000 1.0000
32.7200 1233.0000 1.0000
32.7300 1184.0000 1.0000
32.7400 1253.0000 1.0000
32.7500 1226.0000 1.0000
32.7600 1175.0000 1.0000
32.7700 1142.0000 1.0000
32.7800 1154.0000 1.0000
32.7900 1163.0000 1.0000
32.8000 1200.0000 1.0000
32.8100 1220.0000 1.0000
32.8200 1193.0000 1.0000
32.8300 1138.0000 1.0000
32.8400 1235.0000 1.0000
32.8500 1202.0000 1.0000
32.8600 1155.0000 1.0000
32.8700 1183.0000 1.0000
32.8800 1174.0000 1.0000
32.8900 1172.0000 1.0000
32.9000 1167.0000 1.0000
32.9100 1194.0000 1.0000
32.9200 1193.0000 1.0000
32.9300 1209.0000 1.0000
32.9400 1166.0000 1.0000
32.9500 1178.0000 1.0000
32.9600 1202.0000 1.0000
32.9700 1173.0000 1.0000
32.9800 1171.0000 1.0000
32.9900 1187.0000 1.0000
33.0000 1143.0000 1.0000
33.0100 1120.0000 1.0000
33.0200 1147.0000 1.0000
33.0300 1153.0000 1.0000
33.0400 1166.0000 1.0000
33.0500 1176.0000 1.0000
33.0600 1204.0000 1.0000
33.0700 1182.0000 1.0000
33.0800 1156.0000 1.0000
33.0900 1207.0000 1.0000
33.1000 1208.0000 1.0000
33.1100 1220.0000 1.0000
33.1200 1194.0000 1.0000
33.1300 1189.0000 1.0000
33.1400 1150.0000 1.0000
33.1500 1166.0000 1.0000
33.1600 1122.0000 1.0000
33.1700 1142.0000 1.0000
33.1800 1193.0000 1.0000
33.1900 1132.0000 1.0000
33.2000 1187.0000 1.0000
33.2100 1097.0000 1.0000
33.2200 1156.0000 1.0000
33.2300 1147.0000 1.0000
33.2400 1144.0000 1.0000
33.2500 1169.0000 1.0000
33.2600 1173.0000 1.0000
33.2700 1166.0000 1.0000
33.2800 1140.0000 1.0000
33.2900 1205.0000 1.0000
33.3000 1156.0000 1.0000
33.3100 1182.0000 1.0000
33.3200 1144.0000 1.0000
33.3300 1149.0000 1.0000
33.3400 1172.0000 1.0000
33.3500 1194.0000 1.0000
33.3600 1133.0000 1.0000
33.3700 1163.0000 1.0000
33.3800 1136.0000 1.0000
33.3900 1160.0000 1.0000
33.4000 1206.0000 1.0000
33.4100 1163.0000 1.0000
33.4200 1179.0000 1.0000
33.4300 1119.0000 1.0000
33.4400 1200.0000 1.0000
33.4500 1133.0000 1.0000
33.4600 1133.0000 1.0000
33.4700 1135.0000 1.0000
33.4800 1191.0000 1.0000
33.4900 1154.0000 1.0000
33.5000 1222.0000 1.0000
33.5100 1209.0000 1.0000
33.5200 1188.0000 1.0000
33.5300 1188.0000 1.0000
33.5400 1189.0000 1.0000
33.5500 1100.0000 1.0000
33.5600 1165.0000 1.0000
33.5700 1180.0000 1.0000
33.5800 1181.0000 1.0000
33.5900 1206.0000 1.0000
33.6000 1205.0000 1.0000
33.6100 1185.0000 1.0000
33.6200 1194.0000 1.0000
33.6300 1194.0000 1.0000
33.6400 1185.0000 1.0000
33.6500 1198.0000 1.0000
33.6600 1157.0000 1.0000
33.6700 1163.0000 1.0000
33.6800 1166.0000 1.0000
33.6900 1181.0000 1.0000
33.7000 1238.0000 1.0000
33.7100 1196.0000 1.0000
33.7200 1199.0000 1.0000
33.7300 1193.0000 1.0000
33.7400 1172.0000 1.0000
33.7500 1204.0000 1.0000
33.7600 1206.0000 1.0000
33.7700 1140.0000 1.0000
33.7800 1151.0000 1.0000
33.7900 1162.0000 1.0000
33.8000 1253.0000 1.0000
33.8100 1201.0000 1.0000
33.8200 1209.0000 1.0000
33.8300 1262.0000 1.0000
33.8400 1219.0000 1.0000
33.8500 1196.0000 1.0000
33.8600 1189.0000 1.0000
33.8700 1184.0000 1.0000
33.8800 1216.0000 1.0000
33.8900 1259.0000 1.0000
33.9000 1219.0000 1.0000
33.9100 1312.0000 1.0000
33.9200 1231.0000 1.0000
33.9300 1173.0000 1.0000
33.9400 1234.0000 1.0000
33.9500 1194.0000 1.0000
33.9600 1215.0000 1.0000
33.9700 1228.0000 1.0000
33.9800 1234.0000 1.0000
33.9900 1286.0000 1.0000
34.0000 1254.0000 1.0000
34.0100 1289.0000 1.0000
34.0200 1279.0000 1.0000
34.0300 1267.0000 1.0000
34.0400 1278.0000 1.0000
34.0500 1307.0000 1.0000
34.0600 1289.0000 1.0000
34.0700 1270.0000 1.0000
34.0800 1277.0000 1.0000
34.0900 1279.0000 1.0000
34.1000 1246.0000 1.0000
34.1100 1283.0000 1.0000
34.1200 1248.0000 1.0000
34.1300 1309.0000 1.0000
34.1400 1337.0000 1.0000
34.1500 1358.0000 1.0000
34.1600 1375.0000 1.0000
34.1700 1376.0000 1.0000
34.1800 1389.0000 1.0000
34.1900 1429.0000 1.0000
34.2000 1387.0000 1.0000
34.2100 1411.0000 1.0000
34.2200 1410.0000 1.0000
34.2300 1406.0000 1.0000
34.2400 1519.0000 1.0000
34.2500 1545.0000 1.0000
34.2600 1482.0000 1.0000
34.2700 1591.0000 1.0000
34.2800 1610.0000 1.0000
34.2900 1721.0000 1.0000
34.3000 1683.0000 1.0000
34.3100 1767.0000 1.0000
34.3200 1806.0000 1.0000
34.3300 1859.0000 1.0000
34.3400 1954.0000 1.0000
34.3500 1999.0000 1.0000
34.3600 2058.0000 1.0000
34.3700 2205.0000 1.0000
34.3800 2359.0000 1.0000
34.3900 2362.0000 1.0000
34.4000 2585.0000 1.0000
34.4100 2639.0000 1.0000
34.4200 2783.0000 1.0000
34.4300 2863.0000 1.0000
34.4400 3005.0000 1.0000
34.4500 3024.0000 1.0000
34.4600 3129.0000 1.0000
34.4700 3247.0000 1.0000
34.4800 3394.0000 1.0000
34.4900 3172.0000 1.0000
34.5000 3201.0000 1.0000
34.5100 3153.0000 1.0000
34.5200 3134.0000 1.0000
34.5300 3071.0000 1.0000
34.5400 2936.0000 1.0000
34.5500 2842.0000 1.0000
34.5600 2763.0000 1.0000
34.5700 2702.0000 1.0000
34.5800 2588.0000 1.0000
34.5900 2473.0000 1.0000
34.6000 2458.0000 1.0000
34.6100 2380.0000 1.0000
34.6200 2186.0000 1.0000
34.6300 2141.0000 1.0000
34.6400 2050.0000 1.0000
34.6500 1953.0000 1.0000
34.6600 1920.0000 1.0000
34.6700 1740.0000 1.0000
34.6800 1737.0000 1.0000
34.6900 1678.0000 1.0000
34.7000 1612.0000 1.0000
34.7100 1644.0000 1.0000
34.7200 1567.0000 1.0000
34.7300 1626.0000 1.0000
34.7400 1535.0000 1.0000
34.7500 1522.0000 1.0000
34.7600 1487.0000 1.0000
34.7700 1416.0000 1.0000
34.7800 1394.0000 1.0000
34.7900 1436.0000 1.0000
34.8000 1351.0000 1.0000
34.8100 1368.0000 1.0000
34.8200 1332.0000 1.0000
34.8300 1369.0000 1.0000
34.8400 1322.0000 1.0000
34.8500 1248.0000 1.0000
34.8600 1317.0000 1.0000
34.8700 1231.0000 1.0000
34.8800 1271.0000 1.0000
34.8900 1234.0000 1.0000
34.9000 1162.0000 1.0000
34.9100 1264.0000 1.0000
34.9200 1236.0000 1.0000
34.9300 1190.0000 1.0000
34.9400 1178.0000 1.0000
34.9500 1136.0000 1.0000
34.9600 1165.0000 1.0000
34.9700 1175.0000 1.0000
34.9800 1167.0000 1.0000
34.9900 1103.0000 1.0000
35.0000 1097.0000 1.0000
35.0100 1117.0000 1.0000
35.0200 1129.0000 1.0000
35.0300 1115.0000 1.0000
35.0400 1075.0000 1.0000
35.0500 1140.0000 1.0000
35.0600 1150.0000 1.0000
35.0700 1154.0000 1.0000
35.0800 1160.0000 1.0000
35.0900 1090.0000 1.0000
35.1000 1128.0000 1.0000
35.1100 1163.0000 1.0000
35.1200 1114.0000 1.0000
35.1300 1106.0000 1.0000
35.1400 1112.0000 1.0000
35.1500 1068.0000 1.0000
35.1600 1079.0000 1.0000
35.1700 1065.0000 1.0000
35.1800 1094.0000 1.0000
35.1900 1050.0000 1.0000
35.2000 1045.0000 1.0000
35.2100 1033.0000 1.0000
35.2200 1031.0000 1.0000
35.2300 1088.0000 1.0000
35.2400 1071.0000 1.0000
35.2500 1080.0000 1.0000
35.2600 1045.0000 1.0000
35.2700 1050.0000 1.0000
35.2800 1048.0000 1.0000
35.2900 1025.0000 1.0000
35.3000 1039.0000 1.0000
35.3100 1013.0000 1.0000
35.3200 1012.0000 1.0000
35.3300 1060.0000 1.0000
35.3400 1087.0000 1.0000
35.3500 1085.0000 1.0000
35.3600 1011.0000 1.0000
35.3700 1042.0000 1.0000
35.3800 1010.0000 1.0000
35.3900 1018.0000 1.0000
35.4000 1013.0000 1.0000
35.4100 1017.0000 1.0000
35.4200 1030.0000 1.0000
35.4300 1009.0000 1.0000
35.4400 1075.0000 1.0000
35.4500 976.0000 1.0000
35.4600 1051.0000 1.0000
35.4700 994.0000 1.0000
35.4800 1020.0000 1.0000
35.4900 1023.0000 1.0000
35.5000 991.0000 1.0000
35.5100 1007.0000 1.0000
35.5200 1024.0000 1.0000
35.5300 1033.0000 1.0000
35.5400 1058.0000 1.0000
35.5500 1031.0000 1.0000
35.5600 1011.0000 1.0000
35.5700 984.0000 1.0000
35.5800 1001.0000 1.0000
35.5900 996.0000 1.0000
35.6000 993.0000 1.0000
35.6100 1033.0000 1.0000
35.6200 1008.0000 1.0000
35.6300 999.0000 1.0000
35.6400 960.0000 1.0000
35.6500 1006.0000 1.0000
35.6600 974.0000 1.0000
35.6700 1000.0000 1.0000
35.6800 1038.0000 1.0000
35.6900 977.0000 1.0000
35.7000 992.0000 1.0000
35.7100 1043.0000 1.0000
35.7200 1017.0000 1.0000
35.7300 982.0000 1.0000
35.7400 1008.0000 1.0000
35.7500 1028.0000 1.0000
35.7600 1010.0000 1.0000
35.7700 957.0000 1.0000
35.7800 1018.0000 1.0000
35.7900 1022.0000 1.0000
35.8000 1039.0000 1.0000
35.8100 1024.0000 1.0000
35.8200 983.0000 1.0000
35.8300 985.0000 1.0000
35.8400 1021.0000 1.0000
35.8500 969.0000 1.0000
35.8600 964.0000 1.0000
35.8700 1001.0000 1.0000
35.8800 975.0000 1.0000
35.8900 959.0000 1.0000
35.9000 1007.0000 1.0000
35.9100 979.0000 1.0000
35.9200 974.0000 1.0000
35.9300 1020.0000 1.0000
35.9400 944.0000 1.0000
35.9500 987.0000 1.0000
35.9600 1028.0000 1.0000
35.9700 1013.0000 1.0000
35.9800 969.0000 1.0000
35.9900 953.0000 1.0000
36.0000 994.0000 1.0000
36.0100 1042.0000 1.0000
36.0200 945.0000 1.0000
36.0300 1027.0000 1.0000
36.0400 1052.0000 1.0000
36.0500 1006.0000 1.0000
36.0600 953.0000 1.0000
36.0700 1005.0000 1.0000
36.0800 1043.0000 1.0000
36.0900 1007.0000 1.0000
36.1000 1063.0000 1.0000
36.1100 1012.0000 1.0000
36.1200 1014.0000 1.0000
36.1300 972.0000 1.0000
36.1400 990.0000 1.0000
36.1500 967.0000 1.0000
36.1600 983.0000 1.0000
36.1700 1028.0000 1.0000
36.1800 1005.0000 1.0000
36.1900 989.0000 1.0000
36.2000 1032.0000 1.0000
36.2100 1002.0000 1.0000
36.2200 1066.0000 1.0000
36.2300 1001.0000 1.0000
36.2400 1022.0000 1.0000
36.2500 1025.0000 1.0000
36.2600 1060.0000 1.0000
36.2700 1008.0000 1.0000
36.2800 1068.0000 1.0000
36.2900 1040.0000 1.0000
36.3000 1032.0000 1.0000
36.3100 1059.0000 1.0000
36.3200 1086.0000 1.0000
36.3300 1075.0000 1.0000
36.3400 1055.0000 1.0000
36.3500 1036.0000 1.0000
36.3600 1013.0000 1.0000
36.3700 1028.0000 1.0000
36.3800 1003.0000 1.0000
36.3900 979.0000 1.0000
36.4000 999.0000 1.0000
36.4100 1030.0000 1.0000
36.4200 1033.0000 1.0000
36.4300 995.0000 1.0000
36.4400 1000.0000 1.0000
36.4500 991.0000 1.0000
36.4600 1017.0000 1.0000
36.4700 1024.0000 1.0000
36.4800 1014.0000 1.0000
36.4900 1010.0000 1.0000
36.5000 1028.0000 1.0000
36.5100 1025.0000 1.0000
36.5200 975.0000 1.0000
36.5300 977.0000 1.0000
36.5400 1015.0000 1.0000
36.5500 961.0000 1.0000
36.5600 974.0000 1.0000
36.5700 992.0000 1.0000
36.5800 996.0000 1.0000
36.5900 1016.0000 1.0000
36.6000 967.0000 1.0000
36.6100 981.0000 1.0000
36.6200 979.0000 1.0000
36.6300 1004.0000 1.0000
36.6400 923.0000 1.0000
36.6500 938.0000 1.0000
36.6600 962.0000 1.0000
36.6700 986.0000 1.0000
36.6800 984.0000 1.0000
36.6900 937.0000 1.0000
36.7000 965.0000 1.0000
36.7100 1008.0000 1.0000
36.7200 916.0000 1.0000
36.7300 943.0000 1.0000
36.7400 979.0000 1.0000
36.7500 921.0000 1.0000
36.7600 926.0000 1.0000
36.7700 916.0000 1.0000
36.7800 979.0000 1.0000
36.7900 895.0000 1.0000
36.8000 953.0000 1.0000
36.8100 948.0000 1.0000
36.8200 952.0000 1.0000
36.8300 910.0000 1.0000
36.8400 944.0000 1.0000
36.8500 943.0000 1.0000
36.8600 956.0000 1.0000
36.8700 899.0000 1.0000
36.8800 920.0000 1.0000
36.8900 962.0000 1.0000
36.9000 954.0000 1.0000
36.9100 930.0000 1.0000
36.9200 892.0000 1.0000
36.9300 915.0000 1.0000
36.9400 884.0000 1.0000
36.9500 927.0000 1.0000
36.9600 916.0000 1.0000
36.9700 930.0000 1.0000
36.9800 873.0000 1.0000
36.9900 894.0000 1.0000
37.0000 872.0000 1.0000
37.0100 897.0000 1.0000
37.0200 896.0000 1.0000
37.0300 945.0000 1.0000
37.0400 889.0000 1.0000
37.0500 906.0000 1.0000
37.0600 883.0000 1.0000
37.0700 898.0000 1.0000
37.0800 927.0000 1.0000
37.0900 908.0000 1.0000
37.1000 919.0000 1.0000
37.1100 890.0000 1.0000
37.1200 911.0000 1.0000
37.1300 939.0000 1.0000
37.1400 937.0000 1.0000
37.1500 915.0000 1.0000
37.1600 908.0000 1.0000
37.1700 882.0000 1.0000
37.1800 923.0000 1.0000
37.1900 937.0000 1.0000
37.2000 944.0000 1.0000
37.2100 901.0000 1.0000
37.2200 905.0000 1.0000
37.2300 918.0000 1.0000
37.2400 929.0000 1.0000
37.2500 904.0000 1.0000
37.2600 899.0000 1.0000
37.2700 860.0000 1.0000
37.2800 877.0000 1.0000
37.2900 894.0000 1.0000
37.3000 904.0000 1.0000
37.3100 895.0000 1.0000
37.3200 857.0000 1.0000
37.3300 888.0000 1.0000
37.3400 913.0000 1.0000
37.3500 866.0000 1.0000
37.3600 896.0000 1.0000
37.3700 911.0000 1.0000
37.3800 941.0000 1.0000
37.3900 916.0000 1.0000
37.4000 876.0000 1.0000
37.4100 884.0000 1.0000
37.4200 888.0000 1.0000
37.4300 921.0000 1.0000
37.4400 892.0000 1.0000
37.4500 899.0000 1.0000
37.4600 948.0000 1.0000
37.4700 929.0000 1.0000
37.4800 895.0000 1.0000
37.4900 911.0000 1.0000
37.5000 896.0000 1.0000
37.5100 890.0000 1.0000
37.5200 921.0000 1.0000
37.5300 923.0000 1.0000
37.5400 885.0000 1.0000
37.5500 851.0000 1.0000
37.5600 884.0000 1.0000
37.5700 927.0000 1.0000
37.5800 886.0000 1.0000
37.5900 906.0000 1.0000
37.6000 908.0000 1.0000
37.6100 921.0000 1.0000
37.6200 949.0000 1.0000
37.6300 914.0000 1.0000
37.6400 955.0000 1.0000
37.6500 928.0000 1.0000
37.6600 898.0000 1.0000
37.6700 897.0000 1.0000
37.6800 899.0000 1.0000
37.6900 895.0000 1.0000
37.7000 914.0000 1.0000
37.7100 853.0000 1.0000
37.7200 889.0000 1.0000
37.7300 926.0000 1.0000
37.7400 899.0000 1.0000
37.7500 903.0000 1.0000
37.7600 889.0000 1.0000
37.7700 892.0000 1.0000
37.7800 896.0000 1.0000
37.7900 892.0000 1.0000
37.8000 898.0000 1.0000
37.8100 897.0000 1.0000
37.8200 936.0000 1.0000
37.8300 942.0000 1.0000
37.8400 888.0000 1.0000
37.8500 926.0000 1.0000
37.8600 915.0000 1.0000
37.8700 936.0000 1.0000
37.8800 911.0000 1.0000
37.8900 911.0000 1.0000
37.9000 906.0000 1.0000
37.9100 919.0000 1.0000
37.9200 953.0000 1.0000
37.9300 930.0000 1.0000
37.9400 1019.0000 1.0000
37.9500 945.0000 1.0000
37.9600 928.0000 1.0000
37.9700 905.0000 1.0000
37.9800 946.0000 1.0000
37.9900 982.0000 1.0000
38.0000 990.0000 1.0000
38.0100 959.0000 1.0000
38.0200 974.0000 1.0000
38.0300 996.0000 1.0000
38.0400 967.0000 1.0000
38.0500 1012.0000 1.0000
38.0600 999.0000 1.0000
38.0700 978.0000 1.0000
38.0800 1059.0000 1.0000
38.0900 1020.0000 1.0000
38.1000 1055.0000 1.0000
38.1100 1047.0000 1.0000
38.1200 1060.0000 1.0000
38.1300 1051.0000 1.0000
38.1400 1051.0000 1.0000
38.1500 1170.0000 1.0000
38.1600 1162.0000 1.0000
38.1700 1136.0000 1.0000
38.1800 1202.0000 1.0000
38.1900 1248.0000 1.0000
38.2000 1295.0000 1.0000
38.2100 1338.0000 1.0000
38.2200 1353.0000 1.0000
38.2300 1356.0000 1.0000
38.2400 1402.0000 1.0000
38.2500 1486.0000 1.0000
38.2600 1562.0000 1.0000
38.2700 1545.0000 1.0000
38.2800 1680.0000 1.0000
38.2900 1780.0000 1.0000
38.3000 1739.0000 1.0000
38.3100 1882.0000 1.0000
38.3200 1980.0000 1.0000
38.3300 2184.0000 1.0000
38.3400 2215.0000 1.0000
38.3500 2299.0000 1.0000
38.3600 2465.0000 1.0000
38.3700 2591.0000 1.0000
38.3800 2826.0000 1.0000
38.3900 3105.0000 1.0000
38.4000 3274.0000 1.0000
38.4100 3461.0000 1.0000
38.4200 3744.0000 1.0000
38.4300 4110.0000 1.0000
38.4400 4447.0000 1.0000
38.4500 4711.0000 1.0000
38.4600 4851.0000 1.0000
38.4700 5201.0000 1.0000
38.4800 5334.0000 1.0000
38.4900 5559.0000 1.0000
38.5000 5623.0000 1.0000
38.5100 5810.0000 1.0000
38.5200 5944.0000 1.0000
38.5300 5925.0000 1.0000
38.5400 5716.0000 1.0000
38.5500 5649.0000 1.0000
38.5600 5627.0000 1.0000
38.5700 5344.0000 1.0000
38.5800 5176.0000 1.0000
38.5900 5047.0000 1.0000
38.6000 4942.0000 1.0000
38.6100 4634.0000 1.0000
38.6200 4320.0000 1.0000
38.6300 4127.0000 1.0000
38.6400 4105.0000 1.0000
38.6500 3702.0000 1.0000
38.6600 3515.0000 1.0000
38.6700 3330.0000 1.0000
38.6800 3041.0000 1.0000
38.6900 2859.0000 1.0000
38.7000 2706.0000 1.0000
38.7100 2486.0000 1.0000
38.7200 2284.0000 1.0000
38.7300 2130.0000 1.0000
38.7400 2067.0000 1.0000
38.7500 1855.0000 1.0000
38.7600 1732.0000 1.0000
38.7700 1737.0000 1.0000
38.7800 1661.0000 1.0000
38.7900 1603.0000 1.0000
38.8000 1542.0000 1.0000
38.8100 1417.0000 1.0000
38.8200 1389.0000 1.0000
38.8300 1356.0000 1.0000
38.8400 1302.0000 1.0000
38.8500 1240.0000 1.0000
38.8600 1179.0000 1.0000
38.8700 1196.0000 1.0000
38.8800 1170.0000 1.0000
38.8900 1149.0000 1.0000
38.9000 1091.0000 1.0000
38.9100 1037.0000 1.0000
38.9200 1047.0000 1.0000
38.9300 1018.0000 1.0000
38.9400 967.0000 1.0000
38.9500 925.0000 1.0000
38.9600 938.0000 1.0000
38.9700 939.0000 1.0000
38.9800 934.0000 1.0000
38.9900 945.0000 1.0000
39.0000 966.0000 1.0000
39.0100 993.0000 1.0000
39.0200 930.0000 1.0000
39.0300 896.0000 1.0000
39.0400 938.0000 1.0000
39.0500 877.0000 1.0000
39.0600 872.0000 1.0000
39.0700 868.0000 1.0000
39.0800 914.0000 1.0000
39.0900 916.0000 1.0000
39.1000 890.0000 1.0000
39.1100 865.0000 1.0000
39.1200 878.0000 1.0000
39.1300 832.0000 1.0000
39.1400 812.0000 1.0000
39.1500 917.0000 1.0000
39.1600 870.0000 1.0000
39.1700 877.0000 1.0000
39.1800 828.0000 1.0000
39.1900 860.0000 1.0000
39.2000 843.0000 1.0000
39.2100 835.0000 1.0000
39.2200 800.0000 1.0000
39.2300 825.0000 1.0000
39.2400 821.0000 1.0000
39.2500 819.0000 1.0000
39.2600 799.0000 1.0000
39.2700 775.0000 1.0000
39.2800 811.0000 1.0000
39.2900 782.0000 1.0000
39.3000 841.0000 1.0000
39.3100 841.0000 1.0000
39.3200 775.0000 1.0000
39.3300 817.0000 1.0000
39.3400 871.0000 1.0000
39.3500 827.0000 1.0000
39.3600 785.0000 1.0000
39.3700 733.0000 1.0000
39.3800 785.0000 1.0000
39.3900 840.0000 1.0000
39.4000 825.0000 1.0000
39.4100 836.0000 1.0000
39.4200 815.0000 1.0000
39.4300 838.0000 1.0000
39.4400 866.0000 1.0000
39.4500 865.0000 1.0000
39.4600 817.0000 1.0000
39.4700 805.0000 1.0000
39.4800 811.0000 1.0000
39.4900 802.0000 1.0000
39.5000 916.0000 1.0000
39.5100 836.0000 1.0000
39.5200 865.0000 1.0000
39.5300 881.0000 1.0000
39.5400 891.0000 1.0000
39.5500 823.0000 1.0000
39.5600 829.0000 1.0000
39.5700 880.0000 1.0000
39.5800 865.0000 1.0000
39.5900 887.0000 1.0000
39.6000 795.0000 1.0000
39.6100 832.0000 1.0000
39.6200 851.0000 1.0000
39.6300 887.0000 1.0000
39.6400 861.0000 1.0000
39.6500 838.0000 1.0000
39.6600 889.0000 1.0000
39.6700 856.0000 1.0000
39.6800 804.0000 1.0000
39.6900 820.0000 1.0000
39.7000 868.0000 1.0000
39.7100 850.0000 1.0000
39.7200 844.0000 1.0000
39.7300 830.0000 1.0000
39.7400 812.0000 1.0000
39.7500 797.0000 1.0000
39.7600 804.0000 1.0000
39.7700 815.0000 1.0000
39.7800 829.0000 1.0000
39.7900 835.0000 1.0000
39.8000 790.0000 1.0000
39.8100 727.0000 1.0000
39.8200 792.0000 1.0000
39.8300 774.0000 1.0000
39.8400 803.0000 1.0000
39.8500 771.0000 1.0000
39.8600 787.0000 1.0000
39.8700 797.0000 1.0000
39.8800 763.0000 1.0000
39.8900 761.0000 1.0000
39.9000 803.0000 1.0000
39.9100 737.0000 1.0000
39.9200 766.0000 1.0000
39.9300 789.0000 1.0000
39.9400 766.0000 1.0000
39.9500 750.0000 1.0000
39.9600 747.0000 1.0000
39.9700 749.0000 1.0000
39.9800 774.0000 1.0000
39.9900 753.0000 1.0000
40.0000 782.0000 1.0000
40.0100 773.0000 1.0000
40.0200 763.0000 1.0000
40.0300 797.0000 1.0000
40.0400 700.0000 1.0000
40.0500 766.0000 1.0000
40.0600 813.0000 1.0000
40.0700 756.0000 1.0000
40.0800 750.0000 1.0000
40.0900 765.0000 1.0000
40.1000 768.0000 1.0000
40.1100 763.0000 1.0000
40.1200 741.0000 1.0000
40.1300 770.0000 1.0000
40.1400 766.0000 1.0000
40.1500 741.0000 1.0000
40.1600 736.0000 1.0000
40.1700 738.0000 1.0000
40.1800 735.0000 1.0000
40.1900 699.0000 1.0000
40.2000 757.0000 1.0000
40.2100 728.0000 1.0000
40.2200 789.0000 1.0000
40.2300 724.0000 1.0000
40.2400 741.0000 1.0000
40.2500 774.0000 1.0000
40.2600 721.0000 1.0000
40.2700 705.0000 1.0000
40.2800 718.0000 1.0000
40.2900 730.0000 1.0000
40.3000 781.0000 1.0000
40.3100 747.0000 1.0000
40.3200 766.0000 1.0000
40.3300 694.0000 1.0000
40.3400 727.0000 1.0000
40.3500 758.0000 1.0000
40.3600 736.0000 1.0000
40.3700 797.0000 1.0000
40.3800 754.0000 1.0000
40.3900 782.0000 1.0000
40.4000 756.0000 1.0000
40.4100 710.0000 1.0000
40.4200 746.0000 1.0000
40.4300 723.0000 1.0000
40.4400 747.0000 1.0000
40.4500 722.0000 1.0000
40.4600 747.0000 1.0000
40.4700 730.0000 1.0000
40.4800 710.0000 1.0000
40.4900 753.0000 1.0000
40.5000 749.0000 1.0000
40.5100 744.0000 1.0000
40.5200 754.0000 1.0000
40.5300 739.0000 1.0000
40.5400 739.0000 1.0000
40.5500 739.0000 1.0000
40.5600 736.0000 1.0000
40.5700 756.0000 1.0000
40.5800 706.0000 1.0000
40.5900 719.0000 1.0000
40.6000 720.0000 1.0000
40.6100 771.0000 1.0000
40.6200 758.0000 1.0000
40.6300 719.0000 1.0000
40.6400 716.0000 1.0000
40.6500 760.0000 1.0000
40.6600 718.0000 1.0000
40.6700 760.0000 1.0000
40.6800 778.0000 1.0000
40.6900 721.0000 1.0000
40.7000 745.0000 1.0000
40.7100 767.0000 1.0000
40.7200 715.0000 1.0000
40.7300 684.0000 1.0000
40.7400 688.0000 1.0000
40.7500 730.0000 1.0000
40.7600 736.0000 1.0000
40.7700 766.0000 1.0000
40.7800 740.0000 1.0000
40.7900 760.0000 1.0000
40.8000 776.0000 1.0000
40.8100 770.0000 1.0000
40.8200 754.0000 1.0000
40.8300 688.0000 1.0000
40.8400 727.0000 1.0000
40.8500 724.0000 1.0000
40.8600 703.0000 1.0000
40.8700 728.0000 1.0000
40.8800 705.0000 1.0000
40.8900 720.0000 1.0000
40.9000 783.0000 1.0000
40.9100 702.0000 1.0000
40.9200 727.0000 1.0000
40.9300 729.0000 1.0000
40.9400 744.0000 1.0000
40.9500 724.0000 1.0000
40.9600 725.0000 1.0000
40.9700 746.0000 1.0000
40.9800 678.0000 1.0000
40.9900 702.0000 1.0000
41.0000 735.0000 1.0000
41.0100 698.0000 1.0000
41.0200 709.0000 1.0000
41.0300 734.0000 1.0000
41.0400 679.0000 1.0000
41.0500 728.0000 1.0000
41.0600 777.0000 1.0000
41.0700 691.0000 1.0000
41.0800 696.0000 1.0000
41.0900 745.0000 1.0000
41.1000 733.0000 1.0000
41.1100 713.0000 1.0000
41.1200 708.0000 1.0000
41.1300 707.0000 1.0000
41.1400 696.0000 1.0000
41.1500 706.0000 1.0000
41.1600 693.0000 1.0000
41.1700 692.0000 1.0000
41.1800 675.0000 1.0000
41.1900 705.0000 1.0000
41.2000 730.0000 1.0000
41.2100 744.0000 1.0000
41.2200 725.0000 1.0000
41.2300 741.0000 1.0000
41.2400 752.0000 1.0000
41.2500 757.0000 1.0000
41.2600 716.0000 1.0000
41.2700 725.0000 1.0000
41.2800 706.0000 1.0000
41.2900 757.0000 1.0000
41.3000 760.0000 1.0000
41.3100 665.0000 1.0000
41.3200 707.0000 1.0000
41.3300 776.0000 1.0000
41.3400 768.0000 1.0000
41.3500 699.0000 1.0000
41.3600 696.0000 1.0000
41.3700 721.0000 1.0000
41.3800 717.0000 1.0000
41.3900 702.0000 1.0000
41.4000 746.0000 1.0000
41.4100 742.0000 1.0000
41.4200 761.0000 1.0000
41.4300 720.0000 1.0000
41.4400 744.0000 1.0000
41.4500 724.0000 1.0000
41.4600 721.0000 1.0000
41.4700 729.0000 1.0000
41.4800 702.0000 1.0000
41.4900 767.0000 1.0000
41.5000 747.0000 1.0000
41.5100 710.0000 1.0000
41.5200 681.0000 1.0000
41.5300 733.0000 1.0000
41.5400 670.0000 1.0000
41.5500 757.0000 1.0000
41.5600 718.0000 1.0000
41.5700 703.0000 1.0000
41.5800 689.0000 1.0000
41.5900 702.0000 1.0000
41.6000 701.0000 1.0000
41.6100 658.0000 1.0000
41.6200 703.0000 1.0000
41.6300 733.0000 1.0000
41.6400 735.0000 1.0000
41.6500 696.0000 1.0000
41.6600 698.0000 1.0000
41.6700 733.0000 1.0000
41.6800 693.0000 1.0000
41.6900 688.0000 1.0000
41.7000 758.0000 1.0000
41.7100 760.0000 1.0000
41.7200 730.0000 1.0000
41.7300 720.0000 1.0000
41.7400 727.0000 1.0000
41.7500 704.0000 1.0000
41.7600 724.0000 1.0000
41.7700 753.0000 1.0000
41.7800 721.0000 1.0000
41.7900 681.0000 1.0000
41.8000 717.0000 1.0000
41.8100 751.0000 1.0000
41.8200 705.0000 1.0000
41.8300 732.0000 1.0000
41.8400 727.0000 1.0000
41.8500 735.0000 1.0000
41.8600 730.0000 1.0000
41.8700 714.0000 1.0000
41.8800 721.0000 1.0000
41.8900 742.0000 1.0000
41.9000 710.0000 1.0000
41.9100 757.0000 1.0000
41.9200 724.0000 1.0000
41.9300 708.0000 1.0000
41.9400 704.0000 1.0000
41.9500 715.0000 1.0000
41.9600 733.0000 1.0000
41.9700 687.0000 1.0000
41.9800 710.0000 1.0000
41.9900 716.0000 1.0000
42.0000 748.0000 1.0000
42.0100 675.0000 1.0000
42.0200 712.0000 1.0000
42.0300 665.0000 1.0000
42.0400 710.0000 1.0000
42.0500 740.0000 1.0000
42.0600 752.0000 1.0000
42.0700 709.0000 1.0000
42.0800 727.0000 1.0000
42.0900 740.0000 1.0000
42.1000 755.0000 1.0000
42.1100 693.0000 1.0000
42.1200 733.0000 1.0000
42.1300 744.0000 1.0000
42.1400 717.0000 1.0000
42.1500 739.0000 1.0000
42.1600 710.0000 1.0000
42.1700 674.0000 1.0000
42.1800 712.0000 1.0000
42.1900 697.0000 1.0000
42.2000 757.0000 1.0000
42.2100 733.0000 1.0000
42.2200 686.0000 1.0000
42.2300 722.0000 1.0000
42.2400 673.0000 1.0000
42.2500 717.0000 1.0000
42.2600 719.0000 1.0000
42.2700 676.0000 1.0000
42.2800 720.0000 1.0000
42.2900 768.0000 1.0000
42.3000 718.0000 1.0000
42.3100 696.0000 1.0000
42.3200 715.0000 1.0000
42.3300 701.0000 1.0000
42.3400 685.0000 1.0000
42.3500 700.0000 1.0000
42.3600 723.0000 1.0000
42.3700 726.0000 1.0000
42.3800 710.0000 1.0000
42.3900 730.0000 1.0000
42.4000 750.0000 1.0000
42.4100 668.0000 1.0000
42.4200 693.0000 1.0000
42.4300 745.0000 1.0000
42.4400 708.0000 1.0000
42.4500 694.0000 1.0000
42.4600 719.0000 1.0000
42.4700 716.0000 1.0000
42.4800 693.0000 1.0000
42.4900 737.0000 1.0000
42.5000 654.0000 1.0000
42.5100 769.0000 1.0000
42.5200 717.0000 1.0000
42.5300 722.0000 1.0000
42.5400 721.0000 1.0000
42.5500 667.0000 1.0000
42.5600 707.0000 1.0000
42.5700 688.0000 1.0000
42.5800 682.0000 1.0000
42.5900 765.0000 1.0000
42.6000 697.0000 1.0000
42.6100 733.0000 1.0000
42.6200 727.0000 1.0000
42.6300 736.0000 1.0000
42.6400 695.0000 1.0000
42.6500 706.0000 1.0000
42.6600 717.0000 1.0000
42.6700 679.0000 1.0000
42.6800 687.0000 1.0000
42.6900 685.0000 1.0000
42.7000 674.0000 1.0000
42.7100 737.0000 1.0000
42.7200 711.0000 1.0000
42.7300 713.0000 1.0000
42.7400 738.0000 1.0000
42.7500 724.0000 1.0000
42.7600 672.0000 1.0000
42.7700 695.0000 1.0000
42.7800 707.0000 1.0000
42.7900 664.0000 1.0000
42.8000 729.0000 1.0000
42.8100 699.0000 1.0000
42.8200 692.0000 1.0000
42.8300 715.0000 1.0000
42.8400 698.0000 1.0000
42.8500 683.0000 1.0000
42.8600 715.0000 1.0000
42.8700 667.0000 1.0000
42.8800 714.0000 1.0000
42.8900 755.0000 1.0000
42.9000 723.0000 1.0000
42.9100 726.0000 1.0000
42.9200 683.0000 1.0000
42.9300 707.0000 1.0000
42.9400 738.0000 1.0000
42.9500 709.0000 1.0000
42.9600 714.0000 1.0000
42.9700 689.0000 1.0000
42.9800 719.0000 1.0000
42.9900 701.0000 1.0000
43.0000 685.0000 1.0000
43.0100 750.0000 1.0000
43.0200 730.0000 1.0000
43.0300 707.0000 1.0000
43.0400 717.0000 1.0000
43.0500 698.0000 1.0000
43.0600 690.0000 1.0000
43.0700 747.0000 1.0000
43.0800 742.0000 1.0000
43.0900 722.0000 1.0000
43.1000 744.0000 1.0000
43.1100 704.0000 1.0000
43.1200 787.0000 1.0000
43.1300 807.0000 1.0000
43.1400 782.0000 1.0000
43.1500 788.0000 1.0000
43.1600 773.0000 1.0000
43.1700 758.0000 1.0000
43.1800 760.0000 1.0000
43.1900 728.0000 1.0000
43.2000 778.0000 1.0000
43.2100 780.0000 1.0000
43.2200 775.0000 1.0000
43.2300 796.0000 1.0000
43.2400 763.0000 1.0000
43.2500 775.0000 1.0000
43.2600 774.0000 1.0000
43.2700 821.0000 1.0000
43.2800 820.0000 1.0000
43.2900 794.0000 1.0000
43.3000 767.0000 1.0000
43.3100 743.0000 1.0000
43.3200 718.0000 1.0000
43.3300 729.0000 1.0000
43.3400 735.0000 1.0000
43.3500 777.0000 1.0000
43.3600 749.0000 1.0000
43.3700 725.0000 1.0000
43.3800 724.0000 1.0000
43.3900 735.0000 1.0000
43.4000 712.0000 1.0000
43.4100 730.0000 1.0000
43.4200 773.0000 1.0000
43.4300 730.0000 1.0000
43.4400 728.0000 1.0000
43.4500 705.0000 1.0000
43.4600 693.0000 1.0000
43.4700 695.0000 1.0000
43.4800 701.0000 1.0000
43.4900 713.0000 1.0000
43.5000 667.0000 1.0000
43.5100 699.0000 1.0000
43.5200 682.0000 1.0000
43.5300 711.0000 1.0000
43.5400 701.0000 1.0000
43.5500 703.0000 1.0000
43.5600 685.0000 1.0000
43.5700 691.0000 1.0000
43.5800 695.0000 1.0000
43.5900 678.0000 1.0000
43.6000 649.0000 1.0000
43.6100 715.0000 1.0000
43.6200 679.0000 1.0000
43.6300 721.0000 1.0000
43.6400 679.0000 1.0000
43.6500 676.0000 1.0000
43.6600 706.0000 1.0000
43.6700 684.0000 1.0000
43.6800 662.0000 1.0000
43.6900 700.0000 1.0000
43.7000 642.0000 1.0000
43.7100 721.0000 1.0000
43.7200 678.0000 1.0000
43.7300 657.0000 1.0000
43.7400 635.0000 1.0000
43.7500 681.0000 1.0000
43.7600 700.0000 1.0000
43.7700 718.0000 1.0000
43.7800 734.0000 1.0000
43.7900 719.0000 1.0000
43.8000 670.0000 1.0000
43.8100 701.0000 1.0000
43.8200 679.0000 1.0000
43.8300 674.0000 1.0000
43.8400 720.0000 1.0000
43.8500 680.0000 1.0000
43.8600 699.0000 1.0000
43.8700 704.0000 1.0000
43.8800 690.0000 1.0000
43.8900 689.0000 1.0000
43.9000 699.0000 1.0000
43.9100 685.0000 1.0000
43.9200 652.0000 1.0000
43.9300 683.0000 1.0000
43.9400 684.0000 1.0000
43.9500 699.0000 1.0000
43.9600 670.0000 1.0000
43.9700 665.0000 1.0000
43.9800 670.0000 1.0000
43.9900 695.0000 1.0000
44.0000 662.0000 1.0000
44.0100 680.0000 1.0000
44.0200 667.0000 1.0000
44.0300 661.0000 1.0000
44.0400 691.0000 1.0000
44.0500 639.0000 1.0000
44.0600 714.0000 1.0000
44.0700 697.0000 1.0000
44.0800 665.0000 1.0000
44.0900 669.0000 1.0000
44.1000 681.0000 1.0000
44.1100 725.0000 1.0000
44.1200 757.0000 1.0000
44.1300 741.0000 1.0000
44.1400 623.0000 1.0000
44.1500 686.0000 1.0000
44.1600 674.0000 1.0000
44.1700 676.0000 1.0000
44.1800 717.0000 1.0000
44.1900 693.0000 1.0000
44.2000 664.0000 1.0000
44.2100 697.0000 1.0000
44.2200 696.0000 1.0000
44.2300 694.0000 1.0000
44.2400 623.0000 1.0000
44.2500 691.0000 1.0000
44.2600 646.0000 1.0000
44.2700 661.0000 1.0000
44.2800 707.0000 1.0000
44.2900 663.0000 1.0000
44.3000 626.0000 1.0000
44.3100 656.0000 1.0000
44.3200 702.0000 1.0000
44.3300 687.0000 1.0000
44.3400 686.0000 1.0000
44.3500 678.0000 1.0000
44.3600 678.0000 1.0000
44.3700 687.0000 1.0000
44.3800 696.0000 1.0000
44.3900 682.0000 1.0000
44.4000 664.0000 1.0000
44.4100 647.0000 1.0000
44.4200 638.0000 1.0000
44.4300 705.0000 1.0000
44.4400 714.0000 1.0000
44.4500 701.0000 1.0000
44.4600 713.0000 1.0000
44.4700 692.0000 1.0000
44.4800 701.0000 1.0000
44.4900 684.0000 1.0000
44.5000 669.0000 1.0000
44.5100 690.0000 1.0000
44.5200 702.0000 1.0000
44.5300 682.0000 1.0000
44.5400 694.0000 1.0000
44.5500 672.0000 1.0000
44.5600 672.0000 1.0000
44.5700 676.0000 1.0000
44.5800 709.0000 1.0000
44.5900 690.0000 1.0000
44.6000 690.0000 1.0000
44.6100 693.0000 1.0000
44.6200 681.0000 1.0000
44.6300 678.0000 1.0000
44.6400 694.0000 1.0000
44.6500 691.0000 1.0000
44.6600 673.0000 1.0000
44.6700 644.0000 1.0000
44.6800 683.0000 1.0000
44.6900 660.0000 1.0000
44.7000 698.0000 1.0000
44.7100 695.0000 1.0000
44.7200 637.0000 1.0000
44.7300 600.0000 1.0000
44.7400 632.0000 1.0000
44.7500 689.0000 1.0000
44.7600 712.0000 1.0000
44.7700 661.0000 1.0000
44.7800 649.0000 1.0000
44.7900 640.0000 1.0000
44.8000 642.0000 1.0000
44.8100 647.0000 1.0000
44.8200 645.0000 1.0000
44.8300 635.0000 1.0000
44.8400 639.0000 1.0000
44.8500 670.0000 1.0000
44.8600 672.0000 1.0000
44.8700 674.0000 1.0000
44.8800 720.0000 1.0000
44.8900 671.0000 1.0000
44.9000 688.0000 1.0000
44.9100 677.0000 1.0000
44.9200 652.0000 1.0000
44.9300 677.0000 1.0000
44.9400 661.0000 1.0000
44.9500 624.0000 1.0000
44.9600 653.0000 1.0000
44.9700 647.0000 1.0000
44.9800 643.0000 1.0000
44.9900 662.0000 1.0000
45.0000 664.0000 1.0000
45.0100 630.0000 1.0000
45.0200 654.0000 1.0000
45.0300 671.0000 1.0000
45.0400 657.0000 1.0000
45.0500 680.0000 1.0000
45.0600 685.0000 1.0000
45.0700 640.0000 1.0000
45.0800 648.0000 1.0000
45.0900 678.0000 1.0000
45.1000 651.0000 1.0000
45.1100 666.0000 1.0000
45.1200 644.0000 1.0000
45.1300 635.0000 1.0000
45.1400 619.0000 1.0000
45.1500 679.0000 1.0000
45.1600 641.0000 1.0000
45.1700 661.0000 1.0000
45.1800 648.0000 1.0000
45.1900 692.0000 1.0000
45.2000 679.0000 1.0000
45.2100 645.0000 1.0000
45.2200 696.0000 1.0000
45.2300 669.0000 1.0000
45.2400 642.0000 1.0000
45.2500 631.0000 1.0000
45.2600 654.0000 1.0000
45.2700 664.0000 1.0000
45.2800 651.0000 1.0000
45.2900 674.0000 1.0000
45.3000 700.0000 1.0000
45.3100 645.0000 1.0000
45.3200 655.0000 1.0000
45.3300 677.0000 1.0000
45.3400 674.0000 1.0000
45.3500 685.0000 1.0000
45.3600 688.0000 1.0000
45.3700 624.0000 1.0000
45.3800 642.0000 1.0000
45.3900 642.0000 1.0000
45.4000 655.0000 1.0000
45.4100 657.0000 1.0000
45.4200 652.0000 1.0000
45.4300 656.0000 1.0000
45.4400 657.0000 1.0000
45.4500 673.0000 1.0000
45.4600 627.0000 1.0000
45.4700 635.0000 1.0000
45.4800 662.0000 1.0000
45.4900 663.0000 1.0000
45.5000 648.0000 1.0000
45.5100 652.0000 1.0000
45.5200 621.0000 1.0000
45.5300 664.0000 1.0000
45.5400 649.0000 1.0000
45.5500 626.0000 1.0000
45.5600 649.0000 1.0000
45.5700 643.0000 1.0000
45.5800 638.0000 1.0000
45.5900 655.0000 1.0000
45.6000 646.0000 1.0000
45.6100 653.0000 1.0000
45.6200 652.0000 1.0000
45.6300 652.0000 1.0000
45.6400 656.0000 1.0000
45.6500 661.0000 1.0000
45.6600 644.0000 1.0000
45.6700 632.0000 1.0000
45.6800 641.0000 1.0000
45.6900 660.0000 1.0000
45.7000 653.0000 1.0000
45.7100 713.0000 1.0000
45.7200 658.0000 1.0000
45.7300 690.0000 1.0000
45.7400 654.0000 1.0000
45.7500 670.0000 1.0000
45.7600 652.0000 1.0000
45.7700 633.0000 1.0000
45.7800 646.0000 1.0000
45.7900 674.0000 1.0000
45.8000 674.0000 1.0000
45.8100 674.0000 1.0000
45.8200 692.0000 1.0000
45.8300 646.0000 1.0000
45.8400 648.0000 1.0000
45.8500 654.0000 1.0000
45.8600 648.0000 1.0000
45.8700 615.0000 1.0000
45.8800 638.0000 1.0000
45.8900 644.0000 1.0000
45.9000 615.0000 1.0000
45.9100 633.0000 1.0000
45.9200 622.0000 1.0000
45.9300 651.0000 1.0000
45.9400 655.0000 1.0000
45.9500 626.0000 1.0000
45.9600 622.0000 1.0000
45.9700 676.0000 1.0000
45.9800 672.0000 1.0000
45.9900 644.0000 1.0000
46.0000 658.0000 1.0000
46.0100 644.0000 1.0000
46.0200 625.0000 1.0000
46.0300 619.0000 1.0000
46.0400 631.0000 1.0000
46.0500 621.0000 1.0000
46.0600 643.0000 1.0000
46.0700 647.0000 1.0000
46.0800 631.0000 1.0000
46.0900 672.0000 1.0000
46.1000 643.0000 1.0000
46.1100 654.0000 1.0000
46.1200 648.0000 1.0000
46.1300 655.0000 1.0000
46.1400 650.0000 1.0000
46.1500 630.0000 1.0000
46.1600 665.0000 1.0000
46.1700 643.0000 1.0000
46.1800 656.0000 1.0000
46.1900 678.0000 1.0000
46.2000 659.0000 1.0000
46.2100 641.0000 1.0000
46.2200 667.0000 1.0000
46.2300 634.0000 1.0000
46.2400 618.0000 1.0000
46.2500 641.0000 1.0000
46.2600 662.0000 1.0000
46.2700 657.0000 1.0000
46.2800 632.0000 1.0000
46.2900 630.0000 1.0000
46.3000 620.0000 1.0000
46.3100 635.0000 1.0000
46.3200 664.0000 1.0000
46.3300 597.0000 1.0000
46.3400 612.0000 1.0000
46.3500 620.0000 1.0000
46.3600 638.0000 1.0000
46.3700 648.0000 1.0000
46.3800 636.0000 1.0000
46.3900 642.0000 1.0000
46.4000 628.0000 1.0000
46.4100 637.0000 1.0000
46.4200 604.0000 1.0000
46.4300 613.0000 1.0000
46.4400 649.0000 1.0000
46.4500 607.0000 1.0000
46.4600 637.0000 1.0000
46.4700 641.0000 1.0000
46.4800 675.0000 1.0000
46.4900 626.0000 1.0000
46.5000 624.0000 1.0000
46.5100 601.0000 1.0000
46.5200 629.0000 1.0000
46.5300 662.0000 1.0000
46.5400 595.0000 1.0000
46.5500 630.0000 1.0000
46.5600 630.0000 1.0000
46.5700 605.0000 1.0000
46.5800 664.0000 1.0000
46.5900 606.0000 1.0000
46.6000 623.0000 1.0000
46.6100 666.0000 1.0000
46.6200 666.0000 1.0000
46.6300 627.0000 1.0000
46.6400 649.0000 1.0000
46.6500 601.0000 1.0000
46.6600 642.0000 1.0000
46.6700 619.0000 1.0000
46.6800 656.0000 1.0000
46.6900 653.0000 1.0000
46.7000 612.0000 1.0000
46.7100 618.0000 1.0000
46.7200 606.0000 1.0000
46.7300 640.0000 1.0000
46.7400 620.0000 1.0000
46.7500 615.0000 1.0000
46.7600 634.0000 1.0000
46.7700 632.0000 1.0000
46.7800 649.0000 1.0000
46.7900 633.0000 1.0000
46.8000 607.0000 1.0000
46.8100 615.0000 1.0000
46.8200 607.0000 1.0000
46.8300 641.0000 1.0000
46.8400 653.0000 1.0000
46.8500 638.0000 1.0000
46.8600 660.0000 1.0000
46.8700 639.0000 1.0000
46.8800 671.0000 1.0000
46.8900 648.0000 1.0000
46.9000 637.0000 1.0000
46.9100 681.0000 1.0000
46.9200 629.0000 1.0000
46.9300 655.0000 1.0000
46.9400 664.0000 1.0000
46.9500 651.0000 1.0000
46.9600 653.0000 1.0000
46.9700 674.0000 1.0000
46.9800 683.0000 1.0000
46.9900 661.0000 1.0000
47.0000 666.0000 1.0000
47.0100 682.0000 1.0000
47.0200 624.0000 1.0000
47.0300 648.0000 1.0000
47.0400 652.0000 1.0000
47.0500 631.0000 1.0000
47.0600 649.0000 1.0000
47.0700 623.0000 1.0000
47.0800 638.0000 1.0000
47.0900 619.0000 1.0000
47.1000 625.0000 1.0000
47.1100 614.0000 1.0000
47.1200 627.0000 1.0000
47.1300 624.0000 1.0000
47.1400 666.0000 1.0000
47.1500 629.0000 1.0000
47.1600 652.0000 1.0000
47.1700 613.0000 1.0000
47.1800 584.0000 1.0000
47.1900 633.0000 1.0000
47.2000 636.0000 1.0000
47.2100 653.0000 1.0000
47.2200 605.0000 1.0000
47.2300 601.0000 1.0000
47.2400 572.0000 1.0000
47.2500 611.0000 1.0000
47.2600 611.0000 1.0000
47.2700 625.0000 1.0000
47.2800 620.0000 1.0000
47.2900 588.0000 1.0000
47.3000 615.0000 1.0000
47.3100 630.0000 1.0000
47.3200 640.0000 1.0000
47.3300 615.0000 1.0000
47.3400 637.0000 1.0000
47.3500 604.0000 1.0000
47.3600 606.0000 1.0000
47.3700 601.0000 1.0000
47.3800 615.0000 1.0000
47.3900 613.0000 1.0000
47.4000 620.0000 1.0000
47.4100 630.0000 1.0000
47.4200 618.0000 1.0000
47.4300 635.0000 1.0000
47.4400 613.0000 1.0000
47.4500 605.0000 1.0000
47.4600 597.0000 1.0000
47.4700 603.0000 1.0000
47.4800 574.0000 1.0000
47.4900 643.0000 1.0000
47.5000 671.0000 1.0000
47.5100 604.0000 1.0000
47.5200 612.0000 1.0000
47.5300 612.0000 1.0000
47.5400 624.0000 1.0000
47.5500 609.0000 1.0000
47.5600 642.0000 1.0000
47.5700 626.0000 1.0000
47.5800 608.0000 1.0000
47.5900 624.0000 1.0000
47.6000 607.0000 1.0000
47.6100 628.0000 1.0000
47.6200 656.0000 1.0000
47.6300 624.0000 1.0000
47.6400 591.0000 1.0000
47.6500 604.0000 1.0000
47.6600 597.0000 1.0000
47.6700 610.0000 1.0000
47.6800 609.0000 1.0000
47.6900 620.0000 1.0000
47.7000 570.0000 1.0000
47.7100 583.0000 1.0000
47.7200 613.0000 1.0000
47.7300 608.0000 1.0000
47.7400 632.0000 1.0000
47.7500 651.0000 1.0000
47.7600 617.0000 1.0000
47.7700 638.0000 1.0000
47.7800 618.0000 1.0000
47.7900 615.0000 1.0000
47.8000 629.0000 1.0000
47.8100 645.0000 1.0000
47.8200 623.0000 1.0000
47.8300 646.0000 1.0000
47.8400 624.0000 1.0000
47.8500 607.0000 1.0000
47.8600 617.0000 1.0000
47.8700 592.0000 1.0000
47.8800 611.0000 1.0000
47.8900 620.0000 1.0000
47.9000 622.0000 1.0000
47.9100 630.0000 1.0000
47.9200 647.0000 1.0000
47.9300 603.0000 1.0000
47.9400 612.0000 1.0000
47.9500 588.0000 1.0000
47.9600 627.0000 1.0000
47.9700 595.0000 1.0000
47.9800 595.0000 1.0000
47.9900 606.0000 1.0000
48.0000 556.0000 1.0000
48.0100 636.0000 1.0000
48.0200 621.0000 1.0000
48.0300 620.0000 1.0000
48.0400 622.0000 1.0000
48.0500 605.0000 1.0000
48.0600 610.0000 1.0000
48.0700 608.0000 1.0000
48.0800 615.0000 1.0000
48.0900 613.0000 1.0000
48.1000 619.0000 1.0000
48.1100 620.0000 1.0000
48.1200 600.0000 1.0000
48.1300 611.0000 1.0000
48.1400 591.0000 1.0000
48.1500 652.0000 1.0000
48.1600 657.0000 1.0000
48.1700 612.0000 1.0000
48.1800 640.0000 1.0000
48.1900 572.0000 1.0000
48.2000 601.0000 1.0000
48.2100 603.0000 1.0000
48.2200 571.0000 1.0000
48.2300 595.0000 1.0000
48.2400 594.0000 1.0000
48.2500 616.0000 1.0000
48.2600 593.0000 1.0000
48.2700 591.0000 1.0000
48.2800 612.0000 1.0000
48.2900 590.0000 1.0000
48.3000 620.0000 1.0000
48.3100 606.0000 1.0000
48.3200 631.0000 1.0000
48.3300 606.0000 1.0000
48.3400 621.0000 1.0000
48.3500 600.0000 1.0000
48.3600 613.0000 1.0000
48.3700 526.0000 1.0000
48.3800 620.0000 1.0000
48.3900 591.0000 1.0000
48.4000 615.0000 1.0000
48.4100 638.0000 1.0000
48.4200 591.0000 1.0000
48.4300 576.0000 1.0000
48.4400 579.0000 1.0000
48.4500 623.0000 1.0000
48.4600 611.0000 1.0000
48.4700 613.0000 1.0000
48.4800 556.0000 1.0000
48.4900 650.0000 1.0000
48.5000 625.0000 1.0000
48.5100 613.0000 1.0000
48.5200 592.0000 1.0000
48.5300 588.0000 1.0000
48.5400 592.0000 1.0000
48.5500 614.0000 1.0000
48.5600 580.0000 1.0000
48.5700 599.0000 1.0000
48.5800 621.0000 1.0000
48.5900 575.0000 1.0000
48.6000 613.0000 1.0000
48.6100 610.0000 1.0000
48.6200 588.0000 1.0000
48.6300 570.0000 1.0000
48.6400 601.0000 1.0000
48.6500 639.0000 1.0000
48.6600 616.0000 1.0000
48.6700 585.0000 1.0000
48.6800 605.0000 1.0000
48.6900 575.0000 1.0000
48.7000 586.0000 1.0000
48.7100 573.0000 1.0000
48.7200 630.0000 1.0000
48.7300 561.0000 1.0000
48.7400 555.0000 1.0000
48.7500 625.0000 1.0000
48.7600 620.0000 1.0000
48.7700 618.0000 1.0000
48.7800 595.0000 1.0000
48.7900 586.0000 1.0000
48.8000 595.0000 1.0000
48.8100 563.0000 1.0000
48.8200 637.0000 1.0000
48.8300 627.0000 1.0000
48.8400 610.0000 1.0000
48.8500 627.0000 1.0000
48.8600 561.0000 1.0000
48.8700 564.0000 1.0000
48.8800 571.0000 1.0000
48.8900 639.0000 1.0000
48.9000 631.0000 1.0000
48.9100 588.0000 1.0000
48.9200 564.0000 1.0000
48.9300 578.0000 1.0000
48.9400 619.0000 1.0000
48.9500 570.0000 1.0000
48.9600 555.0000 1.0000
48.9700 611.0000 1.0000
48.9800 596.0000 1.0000
48.9900 608.0000 1.0000
49.0000 617.0000 1.0000
49.0100 574.0000 1.0000
49.0200 636.0000 1.0000
49.0300 611.0000 1.0000
49.0400 626.0000 1.0000
49.0500 601.0000 1.0000
49.0600 580.0000 1.0000
49.0700 587.0000 1.0000
49.0800 595.0000 1.0000
49.0900 591.0000 1.0000
49.1000 616.0000 1.0000
49.1100 577.0000 1.0000
49.1200 588.0000 1.0000
49.1300 589.0000 1.0000
49.1400 626.0000 1.0000
49.1500 598.0000 1.0000
49.1600 582.0000 1.0000
49.1700 578.0000 1.0000
49.1800 570.0000 1.0000
49.1900 551.0000 1.0000
49.2000 573.0000 1.0000
49.2100 581.0000 1.0000
49.2200 558.0000 1.0000
49.2300 587.0000 1.0000
49.2400 615.0000 1.0000
49.2500 606.0000 1.0000
49.2600 607.0000 1.0000
49.2700 566.0000 1.0000
49.2800 605.0000 1.0000
49.2900 579.0000 1.0000
49.3000 575.0000 1.0000
49.3100 579.0000 1.0000
49.3200 598.0000 1.0000
49.3300 606.0000 1.0000
49.3400 616.0000 1.0000
49.3500 582.0000 1.0000
49.3600 593.0000 1.0000
49.3700 533.0000 1.0000
49.3800 576.0000 1.0000
49.3900 606.0000 1.0000
49.4000 588.0000 1.0000
49.4100 561.0000 1.0000
49.4200 584.0000 1.0000
49.4300 582.0000 1.0000
49.4400 551.0000 1.0000
49.4500 623.0000 1.0000
49.4600 608.0000 1.0000
49.4700 600.0000 1.0000
49.4800 571.0000 1.0000
49.4900 556.0000 1.0000
49.5000 608.0000 1.0000
49.5100 564.0000 1.0000
49.5200 601.0000 1.0000
49.5300 567.0000 1.0000
49.5400 581.0000 1.0000
49.5500 611.0000 1.0000
49.5600 578.0000 1.0000
49.5700 578.0000 1.0000
49.5800 593.0000 1.0000
49.5900 591.0000 1.0000
49.6000 574.0000 1.0000
49.6100 626.0000 1.0000
49.6200 624.0000 1.0000
49.6300 604.0000 1.0000
49.6400 596.0000 1.0000
49.6500 575.0000 1.0000
49.6600 597.0000 1.0000
49.6700 573.0000 1.0000
49.6800 588.0000 1.0000
49.6900 585.0000 1.0000
49.7000 591.0000 1.0000
49.7100 603.0000 1.0000
49.7200 600.0000 1.0000
49.7300 603.0000 1.0000
49.7400 600.0000 1.0000
49.7500 588.0000 1.0000
49.7600 597.0000 1.0000
49.7700 593.0000 1.0000
49.7800 611.0000 1.0000
49.7900 583.0000 1.0000
49.8000 585.0000 1.0000
49.8100 580.0000 1.0000
49.8200 585.0000 1.0000
49.8300 585.0000 1.0000
49.8400 539.0000 1.0000
49.8500 600.0000 1.0000
49.8600 578.0000 1.0000
49.8700 563.0000 1.0000
49.8800 587.0000 1.0000
49.8900 609.0000 1.0000
49.9000 593.0000 1.0000
49.9100 551.0000 1.0000
49.9200 619.0000 1.0000
49.9300 609.0000 1.0000
49.9400 641.0000 1.0000
49.9500 560.0000 1.0000
49.9600 547.0000 1.0000
49.9700 573.0000 1.0000
49.9800 584.0000 1.0000
49.9900 603.0000 1.0000
50.0000 594.0000 1.0000
50.0100 573.0000 1.0000
50.0200 558.0000 1.0000
50.0300 603.0000 1.0000
50.0400 596.0000 1.0000
50.0500 573.0000 1.0000
50.0600 610.0000 1.0000
50.0700 587.0000 1.0000
50.0800 570.0000 1.0000
50.0900 587.0000 1.0000
50.1000 529.0000 1.0000
50.1100 542.0000 1.0000
50.1200 604.0000 1.0000
50.1300 610.0000 1.0000
50.1400 582.0000 1.0000
50.1500 589.0000 1.0000
50.1600 606.0000 1.0000
50.1700 552.0000 1.0000
50.1800 596.0000 1.0000
50.1900 598.0000 1.0000
50.2000 578.0000 1.0000
50.2100 598.0000 1.0000
50.2200 606.0000 1.0000
50.2300 563.0000 1.0000
50.2400 547.0000 1.0000
50.2500 566.0000 1.0000
50.2600 594.0000 1.0000
50.2700 563.0000 1.0000
50.2800 565.0000 1.0000
50.2900 582.0000 1.0000
50.3000 590.0000 1.0000
50.3100 601.0000 1.0000
50.3200 607.0000 1.0000
50.3300 574.0000 1.0000
50.3400 578.0000 1.0000
50.3500 610.0000 1.0000
50.3600 587.0000 1.0000
50.3700 597.0000 1.0000
50.3800 616.0000 1.0000
50.3900 604.0000 1.0000
50.4000 620.0000 1.0000
50.4100 602.0000 1.0000
50.4200 575.0000 1.0000
50.4300 604.0000 1.0000
50.4400 602.0000 1.0000
50.4500 610.0000 1.0000
50.4600 581.0000 1.0000
50.4700 583.0000 1.0000
50.4800 604.0000 1.0000
50.4900 620.0000 1.0000
50.5000 605.0000 1.0000
50.5100 565.0000 1.0000
50.5200 542.0000 1.0000
50.5300 618.0000 1.0000
50.5400 607.0000 1.0000
50.5500 649.0000 1.0000
50.5600 596.0000 1.0000
50.5700 576.0000 1.0000
50.5800 595.0000 1.0000
50.5900 615.0000 1.0000
50.6000 613.0000 1.0000
50.6100 583.0000 1.0000
50.6200 579.0000 1.0000
50.6300 617.0000 1.0000
50.6400 624.0000 1.0000
50.6500 592.0000 1.0000
50.6600 578.0000 1.0000
50.6700 610.0000 1.0000
50.6800 552.0000 1.0000
50.6900 577.0000 1.0000
50.7000 615.0000 1.0000
50.7100 605.0000 1.0000
50.7200 639.0000 1.0000
50.7300 615.0000 1.0000
50.7400 600.0000 1.0000
50.7500 607.0000 1.0000
50.7600 612.0000 1.0000
50.7700 636.0000 1.0000
50.7800 622.0000 1.0000
50.7900 614.0000 1.0000
50.8000 617.0000 1.0000
50.8100 580.0000 1.0000
50.8200 629.0000 1.0000
50.8300 612.0000 1.0000
50.8400 596.0000 1.0000
50.8500 605.0000 1.0000
50.8600 634.0000 1.0000
50.8700 623.0000 1.0000
50.8800 576.0000 1.0000
50.8900 589.0000 1.0000
50.9000 593.0000 1.0000
50.9100 590.0000 1.0000
50.9200 616.0000 1.0000
50.9300 601.0000 1.0000
50.9400 610.0000 1.0000
50.9500 618.0000 1.0000
50.9600 554.0000 1.0000
50.9700 565.0000 1.0000
50.9800 563.0000 1.0000
50.9900 609.0000 1.0000
51.0000 604.0000 1.0000
51.0100 615.0000 1.0000
51.0200 571.0000 1.0000
51.0300 603.0000 1.0000
51.0400 566.0000 1.0000
51.0500 616.0000 1.0000
51.0600 610.0000 1.0000
51.0700 610.0000 1.0000
51.0800 568.0000 1.0000
51.0900 613.0000 1.0000
51.1000 654.0000 1.0000
51.1100 593.0000 1.0000
51.1200 608.0000 1.0000
51.1300 610.0000 1.0000
51.1400 610.0000 1.0000
51.1500 580.0000 1.0000
51.1600 602.0000 1.0000
51.1700 590.0000 1.0000
51.1800 655.0000 1.0000
51.1900 640.0000 1.0000
51.2000 593.0000 1.0000
51.2100 606.0000 1.0000
51.2200 641.0000 1.0000
51.2300 590.0000 1.0000
51.2400 620.0000 1.0000
51.2500 609.0000 1.0000
51.2600 612.0000 1.0000
51.2700 592.0000 1.0000
51.2800 604.0000 1.0000
51.2900 578.0000 1.0000
51.3000 620.0000 1.0000
51.3100 593.0000 1.0000
51.3200 587.0000 1.0000
51.3300 598.0000 1.0000
51.3400 574.0000 1.0000
51.3500 623.0000 1.0000
51.3600 641.0000 1.0000
51.3700 597.0000 1.0000
51.3800 591.0000 1.0000
51.3900 597.0000 1.0000
51.4000 617.0000 1.0000
51.4100 598.0000 1.0000
51.4200 614.0000 1.0000
51.4300 624.0000 1.0000
51.4400 653.0000 1.0000
51.4500 650.0000 1.0000
51.4600 633.0000 1.0000
51.4700 624.0000 1.0000
51.4800 634.0000 1.0000
51.4900 610.0000 1.0000
51.5000 656.0000 1.0000
51.5100 605.0000 1.0000
51.5200 602.0000 1.0000
51.5300 654.0000 1.0000
51.5400 650.0000 1.0000
51.5500 626.0000 1.0000
51.5600 622.0000 1.0000
51.5700 626.0000 1.0000
51.5800 593.0000 1.0000
51.5900 641.0000 1.0000
51.6000 618.0000 1.0000
51.6100 649.0000 1.0000
51.6200 645.0000 1.0000
51.6300 588.0000 1.0000
51.6400 617.0000 1.0000
51.6500 616.0000 1.0000
51.6600 609.0000 1.0000
51.6700 605.0000 1.0000
51.6800 646.0000 1.0000
51.6900 639.0000 1.0000
51.7000 646.0000 1.0000
51.7100 705.0000 1.0000
51.7200 663.0000 1.0000
51.7300 613.0000 1.0000
51.7400 667.0000 1.0000
51.7500 649.0000 1.0000
51.7600 642.0000 1.0000
51.7700 670.0000 1.0000
51.7800 663.0000 1.0000
51.7900 702.0000 1.0000
51.8000 673.0000 1.0000
51.8100 726.0000 1.0000
51.8200 726.0000 1.0000
51.8300 722.0000 1.0000
51.8400 665.0000 1.0000
51.8500 699.0000 1.0000
51.8600 735.0000 1.0000
51.8700 757.0000 1.0000
51.8800 779.0000 1.0000
51.8900 793.0000 1.0000
51.9000 813.0000 1.0000
51.9100 771.0000 1.0000
51.9200 807.0000 1.0000
51.9300 866.0000 1.0000
51.9400 864.0000 1.0000
51.9500 874.0000 1.0000
51.9600 915.0000 1.0000
51.9700 965.0000 1.0000
51.9800 982.0000 1.0000
51.9900 1029.0000 1.0000
52.0000 1051.0000 1.0000
52.0100 1144.0000 1.0000
52.0200 1169.0000 1.0000
52.0300 1198.0000 1.0000
52.0400 1300.0000 1.0000
52.0500 1336.0000 1.0000
52.0600 1354.0000 1.0000
52.0700 1434.0000 1.0000
52.0800 1515.0000 1.0000
52.0900 1662.0000 1.0000
52.1000 1735.0000 1.0000
52.1100 1843.0000 1.0000
52.1200 1947.0000 1.0000
52.1300 2198.0000 1.0000
52.1400 2481.0000 1.0000
52.1500 2676.0000 1.0000
52.1600 2872.0000 1.0000
52.1700 3231.0000 1.0000
52.1800 3483.0000 1.0000
52.1900 3697.0000 1.0000
52.2000 4004.0000 1.0000
52.2100 4281.0000 1.0000
52.2200 4449.0000 1.0000
52.2300 4644.0000 1.0000
52.2400 4950.0000 1.0000
52.2500 4856.0000 1.0000
52.2600 4988.0000 1.0000
52.2700 4973.0000 1.0000
52.2800 4730.0000 1.0000
52.2900 4622.0000 1.0000
52.3000 4501.0000 1.0000
52.3100 4245.0000 1.0000
52.3200 4166.0000 1.0000
52.3300 4046.0000 1.0000
52.3400 3920.0000 1.0000
52.3500 3972.0000 1.0000
52.3600 3797.0000 1.0000
52.3700 3812.0000 1.0000
52.3800 3676.0000 1.0000
52.3900 3571.0000 1.0000
52.4000 3375.0000 1.0000
52.4100 3199.0000 1.0000
52.4200 3009.0000 1.0000
52.4300 2821.0000 1.0000
52.4400 2731.0000 1.0000
52.4500 2454.0000 1.0000
52.4600 2276.0000 1.0000
52.4700 2043.0000 1.0000
52.4800 1948.0000 1.0000
52.4900 1757.0000 1.0000
52.5000 1647.0000 1.0000
52.5100 1562.0000 1.0000
52.5200 1462.0000 1.0000
52.5300 1410.0000 1.0000
52.5400 1340.0000 1.0000
52.5500 1299.0000 1.0000
52.5600 1224.0000 1.0000
52.5700 1171.0000 1.0000
52.5800 1111.0000 1.0000
52.5900 1096.0000 1.0000
52.6000 1037.0000 1.0000
52.6100 1002.0000 1.0000
52.6200 937.0000 1.0000
52.6300 885.0000 1.0000
52.6400 917.0000 1.0000
52.6500 896.0000 1.0000
52.6600 910.0000 1.0000
52.6700 838.0000 1.0000
52.6800 889.0000 1.0000
52.6900 824.0000 1.0000
52.7000 771.0000 1.0000
52.7100 793.0000 1.0000
52.7200 790.0000 1.0000
52.7300 767.0000 1.0000
52.7400 754.0000 1.0000
52.7500 699.0000 1.0000
52.7600 684.0000 1.0000
52.7700 704.0000 1.0000
52.7800 757.0000 1.0000
52.7900 726.0000 1.0000
52.8000 685.0000 1.0000
52.8100 736.0000 1.0000
52.8200 682.0000 1.0000
52.8300 691.0000 1.0000
52.8400 690.0000 1.0000
52.8500 672.0000 1.0000
52.8600 671.0000 1.0000
52.8700 657.0000 1.0000
52.8800 666.0000 1.0000
52.8900 652.0000 1.0000
52.9000 697.0000 1.0000
52.9100 648.0000 1.0000
52.9200 631.0000 1.0000
52.9300 653.0000 1.0000
52.9400 611.0000 1.0000
52.9500 638.0000 1.0000
52.9600 633.0000 1.0000
52.9700 636.0000 1.0000
52.9800 629.0000 1.0000
52.9900 669.0000 1.0000
53.0000 589.0000 1.0000
53.0100 632.0000 1.0000
53.0200 658.0000 1.0000
53.0300 604.0000 1.0000
53.0400 606.0000 1.0000
53.0500 655.0000 1.0000
53.0600 611.0000 1.0000
53.0700 608.0000 1.0000
53.0800 629.0000 1.0000
53.0900 583.0000 1.0000
53.1000 579.0000 1.0000
53.1100 606.0000 1.0000
53.1200 607.0000 1.0000
53.1300 615.0000 1.0000
53.1400 623.0000 1.0000
53.1500 666.0000 1.0000
53.1600 612.0000 1.0000
53.1700 629.0000 1.0000
53.1800 568.0000 1.0000
53.1900 604.0000 1.0000
53.2000 645.0000 1.0000
53.2100 587.0000 1.0000
53.2200 610.0000 1.0000
53.2300 619.0000 1.0000
53.2400 630.0000 1.0000
53.2500 593.0000 1.0000
53.2600 631.0000 1.0000
53.2700 615.0000 1.0000
53.2800 620.0000 1.0000
53.2900 589.0000 1.0000
53.3000 587.0000 1.0000
53.3100 605.0000 1.0000
53.3200 599.0000 1.0000
53.3300 594.0000 1.0000
53.3400 605.0000 1.0000
53.3500 586.0000 1.0000
53.3600 575.0000 1.0000
53.3700 569.0000 1.0000
53.3800 557.0000 1.0000
53.3900 625.0000 1.0000
53.4000 562.0000 1.0000
53.4100 590.0000 1.0000
53.4200 629.0000 1.0000
53.4300 595.0000 1.0000
53.4400 545.0000 1.0000
53.4500 590.0000 1.0000
53.4600 587.0000 1.0000
53.4700 578.0000 1.0000
53.4800 580.0000 1.0000
53.4900 617.0000 1.0000
53.5000 584.0000 1.0000
53.5100 574.0000 1.0000
53.5200 569.0000 1.0000
53.5300 601.0000 1.0000
53.5400 614.0000 1.0000
53.5500 622.0000 1.0000
53.5600 567.0000 1.0000
53.5700 576.0000 1.0000
53.5800 595.0000 1.0000
53.5900 593.0000 1.0000
53.6000 586.0000 1.0000
53.6100 598.0000 1.0000
53.6200 594.0000 1.0000
53.6300 607.0000 1.0000
53.6400 619.0000 1.0000
53.6500 578.0000 1.0000
53.6600 565.0000 1.0000
53.6700 605.0000 1.0000
53.6800 586.0000 1.0000
53.6900 590.0000 1.0000
53.7000 552.0000 1.0000
53.7100 568.0000 1.0000
53.7200 573.0000 1.0000
53.7300 599.0000 1.0000
53.7400 570.0000 1.0000
53.7500 554.0000 1.0000
53.7600 593.0000 1.0000
53.7700 595.0000 1.0000
53.7800 581.0000 1.0000
53.7900 559.0000 1.0000
53.8000 558.0000 1.0000
53.8100 536.0000 1.0000
53.8200 582.0000 1.0000
53.8300 540.0000 1.0000
53.8400 578.0000 1.0000
53.8500 576.0000 1.0000
53.8600 560.0000 1.0000
53.8700 598.0000 1.0000
53.8800 569.0000 1.0000
53.8900 575.0000 1.0000
53.9000 601.0000 1.0000
53.9100 567.0000 1.0000
53.9200 534.0000 1.0000
53.9300 566.0000 1.0000
53.9400 590.0000 1.0000
53.9500 594.0000 1.0000
53.9600 592.0000 1.0000
53.9700 601.0000 1.0000
53.9800 593.0000 1.0000
53.9900 570.0000 1.0000
54.0000 546.0000 1.0000
54.0100 568.0000 1.0000
54.0200 578.0000 1.0000
54.0300 556.0000 1.0000
54.0400 553.0000 1.0000
54.0500 546.0000 1.0000
54.0600 562.0000 1.0000
54.0700 562.0000 1.0000
54.0800 580.0000 1.0000
54.0900 562.0000 1.0000
54.1000 581.0000 1.0000
54.1100 608.0000 1.0000
54.1200 582.0000 1.0000
54.1300 618.0000 1.0000
54.1400 545.0000 1.0000
54.1500 528.0000 1.0000
54.1600 557.0000 1.0000
54.1700 580.0000 1.0000
54.1800 598.0000 1.0000
54.1900 569.0000 1.0000
54.2000 594.0000 1.0000
54.2100 546.0000 1.0000
54.2200 598.0000 1.0000
54.2300 595.0000 1.0000
54.2400 564.0000 1.0000
54.2500 605.0000 1.0000
54.2600 574.0000 1.0000
54.2700 577.0000 1.0000
54.2800 604.0000 1.0000
54.2900 573.0000 1.0000
54.3000 617.0000 1.0000
54.3100 537.0000 1.0000
54.3200 565.0000 1.0000
54.3300 580.0000 1.0000
54.3400 576.0000 1.0000
54.3500 527.0000 1.0000
54.3600 519.0000 1.0000
54.3700 621.0000 1.0000
54.3800 594.0000 1.0000
54.3900 573.0000 1.0000
54.4000 600.0000 1.0000
54.4100 584.0000 1.0000
54.4200 595.0000 1.0000
54.4300 586.0000 1.0000
54.4400 595.0000 1.0000
54.4500 540.0000 1.0000
54.4600 582.0000 1.0000
54.4700 626.0000 1.0000
54.4800 557.0000 1.0000
54.4900 575.0000 1.0000
54.5000 599.0000 1.0000
54.5100 619.0000 1.0000
54.5200 566.0000 1.0000
54.5300 566.0000 1.0000
54.5400 545.0000 1.0000
54.5500 568.0000 1.0000
54.5600 639.0000 1.0000
54.5700 611.0000 1.0000
54.5800 602.0000 1.0000
54.5900 578.0000 1.0000
54.6000 595.0000 1.0000
54.6100 575.0000 1.0000
54.6200 543.0000 1.0000
54.6300 563.0000 1.0000
54.6400 597.0000 1.0000
54.6500 591.0000 1.0000
54.6600 594.0000 1.0000
54.6700 591.0000 1.0000
54.6800 599.0000 1.0000
54.6900 608.0000 1.0000
54.7000 585.0000 1.0000
54.7100 605.0000 1.0000
54.7200 603.0000 1.0000
54.7300 594.0000 1.0000
54.7400 584.0000 1.0000
54.7500 618.0000 1.0000
54.7600 553.0000 1.0000
54.7700 620.0000 1.0000
54.7800 620.0000 1.0000
54.7900 593.0000 1.0000
54.8000 596.0000 1.0000
54.8100 586.0000 1.0000
54.8200 631.0000 1.0000
54.8300 601.0000 1.0000
54.8400 591.0000 1.0000
54.8500 622.0000 1.0000
54.8600 580.0000 1.0000
54.8700 636.0000 1.0000
54.8800 576.0000 1.0000
54.8900 558.0000 1.0000
54.9000 600.0000 1.0000
54.9100 621.0000 1.0000
54.9200 616.0000 1.0000
54.9300 605.0000 1.0000
54.9400 613.0000 1.0000
54.9500 601.0000 1.0000
54.9600 621.0000 1.0000
54.9700 651.0000 1.0000
54.9800 647.0000 1.0000
54.9900 599.0000 1.0000
55.0000 629.0000 1.0000
55.0100 652.0000 1.0000
55.0200 627.0000 1.0000
55.0300 634.0000 1.0000
55.0400 654.0000 1.0000
55.0500 676.0000 1.0000
55.0600 694.0000 1.0000
55.0700 684.0000 1.0000
55.0800 696.0000 1.0000
55.0900 700.0000 1.0000
55.1000 674.0000 1.0000
55.1100 702.0000 1.0000
55.1200 729.0000 1.0000
55.1300 696.0000 1.0000
55.1400 726.0000 1.0000
55.1500 779.0000 1.0000
55.1600 750.0000 1.0000
55.1700 785.0000 1.0000
55.1800 827.0000 1.0000
55.1900 831.0000 1.0000
55.2000 855.0000 1.0000
55.2100 864.0000 1.0000
55.2200 883.0000 1.0000
55.2300 891.0000 1.0000
55.2400 976.0000 1.0000
55.2500 916.0000 1.0000
55.2600 985.0000 1.0000
55.2700 957.0000 1.0000
55.2800 969.0000 1.0000
55.2900 968.0000 1.0000
55.3000 894.0000 1.0000
55.3100 895.0000 1.0000
55.3200 864.0000 1.0000
55.3300 881.0000 1.0000
55.3400 895.0000 1.0000
55.3500 854.0000 1.0000
55.3600 868.0000 1.0000
55.3700 881.0000 1.0000
55.3800 842.0000 1.0000
55.3900 830.0000 1.0000
55.4000 871.0000 1.0000
55.4100 875.0000 1.0000
55.4200 834.0000 1.0000
55.4300 822.0000 1.0000
55.4400 784.0000 1.0000
55.4500 782.0000 1.0000
55.4600 731.0000 1.0000
55.4700 738.0000 1.0000
55.4800 742.0000 1.0000
55.4900 724.0000 1.0000
55.5000 704.0000 1.0000
55.5100 718.0000 1.0000
55.5200 697.0000 1.0000
55.5300 719.0000 1.0000
55.5400 715.0000 1.0000
55.5500 694.0000 1.0000
55.5600 695.0000 1.0000
55.5700 656.0000 1.0000
55.5800 671.0000 1.0000
55.5900 634.0000 1.0000
55.6000 641.0000 1.0000
55.6100 604.0000 1.0000
55.6200 650.0000 1.0000
55.6300 602.0000 1.0000
55.6400 609.0000 1.0000
55.6500 638.0000 1.0000
55.6600 617.0000 1.0000
55.6700 607.0000 1.0000
55.6800 593.0000 1.0000
55.6900 619.0000 1.0000
55.7000 599.0000 1.0000
55.7100 605.0000 1.0000
55.7200 574.0000 1.0000
55.7300 598.0000 1.0000
55.7400 590.0000 1.0000
55.7500 576.0000 1.0000
55.7600 601.0000 1.0000
55.7700 599.0000 1.0000
55.7800 614.0000 1.0000
55.7900 600.0000 1.0000
55.8000 563.0000 1.0000
55.8100 569.0000 1.0000
55.8200 563.0000 1.0000
55.8300 589.0000 1.0000
55.8400 571.0000 1.0000
55.8500 575.0000 1.0000
55.8600 567.0000 1.0000
55.8700 595.0000 1.0000
55.8800 566.0000 1.0000
55.8900 540.0000 1.0000
55.9000 568.0000 1.0000
55.9100 578.0000 1.0000
55.9200 581.0000 1.0000
55.9300 546.0000 1.0000
55.9400 589.0000 1.0000
55.9500 585.0000 1.0000
55.9600 570.0000 1.0000
55.9700 568.0000 1.0000
55.9800 584.0000 1.0000
55.9900 590.0000 1.0000
56.0000 603.0000 1.0000
56.0100 528.0000 1.0000
56.0200 546.0000 1.0000
56.0300 569.0000 1.0000
56.0400 551.0000 1.0000
56.0500 570.0000 1.0000
56.0600 586.0000 1.0000
56.0700 556.0000 1.0000
56.0800 571.0000 1.0000
56.0900 539.0000 1.0000
56.1000 540.0000 1.0000
56.1100 558.0000 1.0000
56.1200 548.0000 1.0000
56.1300 533.0000 1.0000
56.1400 574.0000 1.0000
56.1500 548.0000 1.0000
56.1600 576.0000 1.0000
56.1700 574.0000 1.0000
56.1800 580.0000 1.0000
56.1900 535.0000 1.0000
56.2000 558.0000 1.0000
56.2100 543.0000 1.0000
56.2200 558.0000 1.0000
56.2300 564.0000 1.0000
56.2400 552.0000 1.0000
56.2500 557.0000 1.0000
56.2600 539.0000 1.0000
56.2700 566.0000 1.0000
56.2800 568.0000 1.0000
56.2900 538.0000 1.0000
56.3000 559.0000 1.0000
56.3100 551.0000 1.0000
56.3200 550.0000 1.0000
56.3300 561.0000 1.0000
56.3400 584.0000 1.0000
56.3500 553.0000 1.0000
56.3600 508.0000 1.0000
56.3700 560.0000 1.0000
56.3800 548.0000 1.0000
56.3900 544.0000 1.0000
56.4000 562.0000 1.0000
56.4100 538.0000 1.0000
56.4200 541.0000 1.0000
56.4300 525.0000 1.0000
56.4400 542.0000 1.0000
56.4500 559.0000 1.0000
56.4600 590.0000 1.0000
56.4700 556.0000 1.0000
56.4800 582.0000 1.0000
56.4900 542.0000 1.0000
56.5000 546.0000 1.0000
56.5100 516.0000 1.0000
56.5200 540.0000 1.0000
56.5300 555.0000 1.0000
56.5400 538.0000 1.0000
56.5500 518.0000 1.0000
56.5600 545.0000 1.0000
56.5700 539.0000 1.0000
56.5800 512.0000 1.0000
56.5900 523.0000 1.0000
56.6000 579.0000 1.0000
56.6100 544.0000 1.0000
56.6200 559.0000 1.0000
56.6300 527.0000 1.0000
56.6400 566.0000 1.0000
56.6500 531.0000 1.0000
56.6600 544.0000 1.0000
56.6700 571.0000 1.0000
56.6800 563.0000 1.0000
56.6900 531.0000 1.0000
56.7000 591.0000 1.0000
56.7100 541.0000 1.0000
56.7200 546.0000 1.0000
56.7300 541.0000 1.0000
56.7400 557.0000 1.0000
56.7500 571.0000 1.0000
56.7600 566.0000 1.0000
56.7700 578.0000 1.0000
56.7800 548.0000 1.0000
56.7900 550.0000 1.0000
56.8000 532.0000 1.0000
56.8100 553.0000 1.0000
56.8200 579.0000 1.0000
56.8300 587.0000 1.0000
56.8400 570.0000 1.0000
56.8500 597.0000 1.0000
56.8600 546.0000 1.0000
56.8700 525.0000 1.0000
56.8800 525.0000 1.0000
56.8900 578.0000 1.0000
56.9000 593.0000 1.0000
56.9100 556.0000 1.0000
56.9200 546.0000 1.0000
56.9300 526.0000 1.0000
56.9400 553.0000 1.0000
56.9500 582.0000 1.0000
56.9600 576.0000 1.0000
56.9700 545.0000 1.0000
56.9800 542.0000 1.0000
56.9900 544.0000 1.0000
57.0000 533.0000 1.0000
57.0100 511.0000 1.0000
57.0200 537.0000 1.0000
57.0300 520.0000 1.0000
57.0400 519.0000 1.0000
57.0500 513.0000 1.0000
57.0600 521.0000 1.0000
57.0700 542.0000 1.0000
57.0800 541.0000 1.0000
57.0900 550.0000 1.0000
57.1000 563.0000 1.0000
57.1100 550.0000 1.0000
57.1200 549.0000 1.0000
57.1300 547.0000 1.0000
57.1400 575.0000 1.0000
57.1500 550.0000 1.0000
57.1600 528.0000 1.0000
57.1700 540.0000 1.0000
57.1800 537.0000 1.0000
57.1900 551.0000 1.0000
57.2000 549.0000 1.0000
57.2100 564.0000 1.0000
57.2200 548.0000 1.0000
57.2300 586.0000 1.0000
57.2400 555.0000 1.0000
57.2500 541.0000 1.0000
57.2600 513.0000 1.0000
57.2700 564.0000 1.0000
57.2800 562.0000 1.0000
57.2900 607.0000 1.0000
57.3000 537.0000 1.0000
57.3100 539.0000 1.0000
57.3200 536.0000 1.0000
57.3300 556.0000 1.0000
57.3400 543.0000 1.0000
57.3500 561.0000 1.0000
57.3600 558.0000 1.0000
57.3700 542.0000 1.0000
57.3800 543.0000 1.0000
57.3900 534.0000 1.0000
57.4000 554.0000 1.0000
57.4100 531.0000 1.0000
57.4200 532.0000 1.0000
57.4300 521.0000 1.0000
57.4400 514.0000 1.0000
57.4500 535.0000 1.0000
57.4600 542.0000 1.0000
57.4700 550.0000 1.0000
57.4800 551.0000 1.0000
57.4900 569.0000 1.0000
57.5000 517.0000 1.0000
57.5100 539.0000 1.0000
57.5200 577.0000 1.0000
57.5300 557.0000 1.0000
57.5400 520.0000 1.0000
57.5500 515.0000 1.0000
57.5600 493.0000 1.0000
57.5700 573.0000 1.0000
57.5800 554.0000 1.0000
57.5900 542.0000 1.0000
57.6000 549.0000 1.0000
57.6100 534.0000 1.0000
57.6200 579.0000 1.0000
57.6300 539.0000 1.0000
57.6400 519.0000 1.0000
57.6500 533.0000 1.0000
57.6600 564.0000 1.0000
57.6700 523.0000 1.0000
57.6800 519.0000 1.0000
57.6900 555.0000 1.0000
57.7000 543.0000 1.0000
57.7100 579.0000 1.0000
57.7200 547.0000 1.0000
57.7300 570.0000 1.0000
57.7400 591.0000 1.0000
57.7500 566.0000 1.0000
57.7600 546.0000 1.0000
57.7700 564.0000 1.0000
57.7800 527.0000 1.0000
57.7900 531.0000 1.0000
57.8000 507.0000 1.0000
57.8100 520.0000 1.0000
57.8200 536.0000 1.0000
57.8300 545.0000 1.0000
57.8400 532.0000 1.0000
57.8500 545.0000 1.0000
57.8600 558.0000 1.0000
57.8700 556.0000 1.0000
57.8800 535.0000 1.0000
57.8900 505.0000 1.0000
57.9000 551.0000 1.0000
57.9100 535.0000 1.0000
57.9200 513.0000 1.0000
57.9300 539.0000 1.0000
57.9400 553.0000 1.0000
57.9500 518.0000 1.0000
57.9600 543.0000 1.0000
57.9700 516.0000 1.0000
57.9800 587.0000 1.0000
57.9900 559.0000 1.0000
58.0000 532.0000 1.0000
58.0100 523.0000 1.0000
58.0200 542.0000 1.0000
58.0300 543.0000 1.0000
58.0400 510.0000 1.0000
58.0500 518.0000 1.0000
58.0600 532.0000 1.0000
58.0700 587.0000 1.0000
58.0800 598.0000 1.0000
58.0900 537.0000 1.0000
58.1000 520.0000 1.0000
58.1100 535.0000 1.0000
58.1200 577.0000 1.0000
58.1300 523.0000 1.0000
58.1400 558.0000 1.0000
58.1500 568.0000 1.0000
58.1600 549.0000 1.0000
58.1700 546.0000 1.0000
58.1800 589.0000 1.0000
58.1900 528.0000 1.0000
58.2000 541.0000 1.0000
58.2100 556.0000 1.0000
58.2200 554.0000 1.0000
58.2300 581.0000 1.0000
58.2400 544.0000 1.0000
58.2500 562.0000 1.0000
58.2600 542.0000 1.0000
58.2700 546.0000 1.0000
58.2800 547.0000 1.0000
58.2900 533.0000 1.0000
58.3000 516.0000 1.0000
58.3100 549.0000 1.0000
58.3200 556.0000 1.0000
58.3300 556.0000 1.0000
58.3400 542.0000 1.0000
58.3500 549.0000 1.0000
58.3600 537.0000 1.0000
58.3700 524.0000 1.0000
58.3800 558.0000 1.0000
58.3900 529.0000 1.0000
58.4000 550.0000 1.0000
58.4100 542.0000 1.0000
58.4200 549.0000 1.0000
58.4300 542.0000 1.0000
58.4400 521.0000 1.0000
58.4500 544.0000 1.0000
58.4600 535.0000 1.0000
58.4700 557.0000 1.0000
58.4800 505.0000 1.0000
58.4900 582.0000 1.0000
58.5000 552.0000 1.0000
58.5100 558.0000 1.0000
58.5200 559.0000 1.0000
58.5300 536.0000 1.0000
58.5400 500.0000 1.0000
58.5500 525.0000 1.0000
58.5600 544.0000 1.0000
58.5700 567.0000 1.0000
58.5800 550.0000 1.0000
58.5900 533.0000 1.0000
58.6000 532.0000 1.0000
58.6100 513.0000 1.0000
58.6200 556.0000 1.0000
58.6300 560.0000 1.0000
58.6400 514.0000 1.0000
58.6500 547.0000 1.0000
58.6600 525.0000 1.0000
58.6700 507.0000 1.0000
58.6800 537.0000 1.0000
58.6900 569.0000 1.0000
58.7000 558.0000 1.0000
58.7100 539.0000 1.0000
58.7200 556.0000 1.0000
58.7300 509.0000 1.0000
58.7400 525.0000 1.0000
58.7500 536.0000 1.0000
58.7600 539.0000 1.0000
58.7700 535.0000 1.0000
58.7800 522.0000 1.0000
58.7900 544.0000 1.0000
58.8000 546.0000 1.0000
58.8100 564.0000 1.0000
58.8200 550.0000 1.0000
58.8300 516.0000 1.0000
58.8400 557.0000 1.0000
58.8500 558.0000 1.0000
58.8600 547.0000 1.0000
58.8700 505.0000 1.0000
58.8800 555.0000 1.0000
58.8900 569.0000 1.0000
58.9000 544.0000 1.0000
58.9100 510.0000 1.0000
58.9200 544.0000 1.0000
58.9300 510.0000 1.0000
58.9400 538.0000 1.0000
58.9500 539.0000 1.0000
58.9600 531.0000 1.0000
58.9700 539.0000 1.0000
58.9800 548.0000 1.0000
58.9900 517.0000 1.0000
59.0000 587.0000 1.0000
59.0100 559.0000 1.0000
59.0200 576.0000 1.0000
59.0300 550.0000 1.0000
59.0400 539.0000 1.0000
59.0500 535.0000 1.0000
59.0600 524.0000 1.0000
59.0700 522.0000 1.0000
59.0800 549.0000 1.0000
59.0900 530.0000 1.0000
59.1000 544.0000 1.0000
59.1100 552.0000 1.0000
59.1200 552.0000 1.0000
59.1300 553.0000 1.0000
59.1400 543.0000 1.0000
59.1500 509.0000 1.0000
59.1600 518.0000 1.0000
59.1700 538.0000 1.0000
59.1800 554.0000 1.0000
59.1900 542.0000 1.0000
59.2000 540.0000 1.0000
59.2100 528.0000 1.0000
59.2200 561.0000 1.0000
59.2300 572.0000 1.0000
59.2400 570.0000 1.0000
59.2500 581.0000 1.0000
59.2600 555.0000 1.0000
59.2700 521.0000 1.0000
59.2800 561.0000 1.0000
59.2900 542.0000 1.0000
59.3000 541.0000 1.0000
59.3100 572.0000 1.0000
59.3200 533.0000 1.0000
59.3300 540.0000 1.0000
59.3400 548.0000 1.0000
59.3500 559.0000 1.0000
59.3600 544.0000 1.0000
59.3700 527.0000 1.0000
59.3800 568.0000 1.0000
59.3900 587.0000 1.0000
59.4000 527.0000 1.0000
59.4100 553.0000 1.0000
59.4200 536.0000 1.0000
59.4300 592.0000 1.0000
59.4400 506.0000 1.0000
59.4500 517.0000 1.0000
59.4600 520.0000 1.0000
59.4700 545.0000 1.0000
59.4800 553.0000 1.0000
59.4900 552.0000 1.0000
59.5000 557.0000 1.0000
59.5100 550.0000 1.0000
59.5200 537.0000 1.0000
59.5300 515.0000 1.0000
59.5400 519.0000 1.0000
59.5500 512.0000 1.0000
59.5600 508.0000 1.0000
59.5700 568.0000 1.0000
59.5800 534.0000 1.0000
59.5900 535.0000 1.0000
59.6000 528.0000 1.0000
59.6100 581.0000 1.0000
59.6200 527.0000 1.0000
59.6300 526.0000 1.0000
59.6400 536.0000 1.0000
59.6500 499.0000 1.0000
59.6600 536.0000 1.0000
59.6700 503.0000 1.0000
59.6800 507.0000 1.0000
59.6900 523.0000 1.0000
59.7000 516.0000 1.0000
59.7100 503.0000 1.0000
59.7200 499.0000 1.0000
59.7300 511.0000 1.0000
59.7400 537.0000 1.0000
59.7500 520.0000 1.0000
59.7600 518.0000 1.0000
59.7700 543.0000 1.0000
59.7800 534.0000 1.0000
59.7900 551.0000 1.0000
59.8000 539.0000 1.0000
59.8100 542.0000 1.0000
59.8200 569.0000 1.0000
59.8300 545.0000 1.0000
59.8400 519.0000 1.0000
59.8500 535.0000 1.0000
59.8600 530.0000 1.0000
59.8700 563.0000 1.0000
59.8800 557.0000 1.0000
59.8900 522.0000 1.0000
59.9000 534.0000 1.0000
59.9100 529.0000 1.0000
59.9200 500.0000 1.0000
59.9300 501.0000 1.0000
59.9400 529.0000 1.0000
59.9500 501.0000 1.0000
59.9600 539.0000 1.0000
59.9700 534.0000 1.0000
59.9800 512.0000 1.0000
59.9900 522.0000 1.0000
60.0000 547.0000 1.0000
60.0100 543.0000 1.0000
60.0200 511.0000 1.0000
60.0300 502.0000 1.0000
60.0400 538.0000 1.0000
60.0500 502.0000 1.0000
60.0600 535.0000 1.0000
60.0700 495.0000 1.0000
60.0800 518.0000 1.0000
60.0900 559.0000 1.0000
60.1000 545.0000 1.0000
60.1100 543.0000 1.0000
60.1200 562.0000 1.0000
60.1300 539.0000 1.0000
60.1400 532.0000 1.0000
60.1500 529.0000 1.0000
60.1600 518.0000 1.0000
60.1700 572.0000 1.0000
60.1800 579.0000 1.0000
60.1900 518.0000 1.0000
60.2000 533.0000 1.0000
60.2100 516.0000 1.0000
60.2200 549.0000 1.0000
60.2300 527.0000 1.0000
60.2400 493.0000 1.0000
60.2500 542.0000 1.0000
60.2600 555.0000 1.0000
60.2700 554.0000 1.0000
60.2800 541.0000 1.0000
60.2900 523.0000 1.0000
60.3000 525.0000 1.0000
60.3100 549.0000 1.0000
60.3200 516.0000 1.0000
60.3300 530.0000 1.0000
60.3400 535.0000 1.0000
60.3500 539.0000 1.0000
60.3600 508.0000 1.0000
60.3700 537.0000 1.0000
60.3800 541.0000 1.0000
60.3900 552.0000 1.0000
60.4000 533.0000 1.0000
60.4100 552.0000 1.0000
60.4200 533.0000 1.0000
60.4300 534.0000 1.0000
60.4400 542.0000 1.0000
60.4500 532.0000 1.0000
60.4600 503.0000 1.0000
60.4700 513.0000 1.0000
60.4800 543.0000 1.0000
60.4900 537.0000 1.0000
60.5000 513.0000 1.0000
60.5100 540.0000 1.0000
60.5200 529.0000 1.0000
60.5300 546.0000 1.0000
60.5400 512.0000 1.0000
60.5500 501.0000 1.0000
60.5600 548.0000 1.0000
60.5700 547.0000 1.0000
60.5800 539.0000 1.0000
60.5900 536.0000 1.0000
60.6000 548.0000 1.0000
60.6100 541.0000 1.0000
60.6200 533.0000 1.0000
60.6300 527.0000 1.0000
60.6400 553.0000 1.0000
60.6500 563.0000 1.0000
60.6600 495.0000 1.0000
60.6700 510.0000 1.0000
60.6800 525.0000 1.0000
60.6900 517.0000 1.0000
60.7000 543.0000 1.0000
60.7100 540.0000 1.0000
60.7200 536.0000 1.0000
60.7300 493.0000 1.0000
60.7400 531.0000 1.0000
60.7500 537.0000 1.0000
60.7600 512.0000 1.0000
60.7700 523.0000 1.0000
60.7800 532.0000 1.0000
60.7900 530.0000 1.0000
60.8000 518.0000 1.0000
60.8100 517.0000 1.0000
60.8200 525.0000 1.0000
60.8300 512.0000 1.0000
60.8400 506.0000 1.0000
60.8500 568.0000 1.0000
60.8600 517.0000 1.0000
60.8700 559.0000 1.0000
60.8800 505.0000 1.0000
60.8900 569.0000 1.0000
60.9000 536.0000 1.0000
60.9100 531.0000 1.0000
60.9200 523.0000 1.0000
60.9300 534.0000 1.0000
60.9400 525.0000 1.0000
60.9500 540.0000 1.0000
60.9600 530.0000 1.0000
60.9700 506.0000 1.0000
60.9800 536.0000 1.0000
60.9900 535.0000 1.0000
61.0000 534.0000 1.0000
61.0100 525.0000 1.0000
61.0200 523.0000 1.0000
61.0300 531.0000 1.0000
61.0400 525.0000 1.0000
61.0500 549.0000 1.0000
61.0600 535.0000 1.0000
61.0700 520.0000 1.0000
61.0800 509.0000 1.0000
61.0900 517.0000 1.0000
61.1000 557.0000 1.0000
61.1100 547.0000 1.0000
61.1200 570.0000 1.0000
61.1300 540.0000 1.0000
61.1400 542.0000 1.0000
61.1500 538.0000 1.0000
61.1600 548.0000 1.0000
61.1700 562.0000 1.0000
61.1800 584.0000 1.0000
61.1900 560.0000 1.0000
61.2000 545.0000 1.0000
61.2100 557.0000 1.0000
61.2200 558.0000 1.0000
61.2300 561.0000 1.0000
61.2400 534.0000 1.0000
61.2500 502.0000 1.0000
61.2600 515.0000 1.0000
61.2700 523.0000 1.0000
61.2800 508.0000 1.0000
61.2900 537.0000 1.0000
61.3000 490.0000 1.0000
61.3100 557.0000 1.0000
61.3200 534.0000 1.0000
61.3300 506.0000 1.0000
61.3400 536.0000 1.0000
61.3500 543.0000 1.0000
61.3600 588.0000 1.0000
61.3700 557.0000 1.0000
61.3800 566.0000 1.0000
61.3900 545.0000 1.0000
61.4000 550.0000 1.0000
61.4100 566.0000 1.0000
61.4200 544.0000 1.0000
61.4300 540.0000 1.0000
61.4400 552.0000 1.0000
61.4500 552.0000 1.0000
61.4600 549.0000 1.0000
61.4700 554.0000 1.0000
61.4800 553.0000 1.0000
61.4900 512.0000 1.0000
61.5000 545.0000 1.0000
61.5100 566.0000 1.0000
61.5200 564.0000 1.0000
61.5300 498.0000 1.0000
61.5400 544.0000 1.0000
61.5500 553.0000 1.0000
61.5600 534.0000 1.0000
61.5700 590.0000 1.0000
61.5800 611.0000 1.0000
61.5900 536.0000 1.0000
61.6000 558.0000 1.0000
61.6100 565.0000 1.0000
61.6200 550.0000 1.0000
61.6300 540.0000 1.0000
61.6400 557.0000 1.0000
61.6500 594.0000 1.0000
61.6600 542.0000 1.0000
61.6700 554.0000 1.0000
61.6800 570.0000 1.0000
61.6900 571.0000 1.0000
61.7000 594.0000 1.0000
61.7100 583.0000 1.0000
61.7200 599.0000 1.0000
61.7300 592.0000 1.0000
61.7400 586.0000 1.0000
61.7500 567.0000 1.0000
61.7600 553.0000 1.0000
61.7700 607.0000 1.0000
61.7800 579.0000 1.0000
61.7900 554.0000 1.0000
61.8000 570.0000 1.0000
61.8100 611.0000 1.0000
61.8200 597.0000 1.0000
61.8300 598.0000 1.0000
61.8400 660.0000 1.0000
61.8500 617.0000 1.0000
61.8600 610.0000 1.0000
61.8700 639.0000 1.0000
61.8800 595.0000 1.0000
61.8900 602.0000 1.0000
61.9000 633.0000 1.0000
61.9100 611.0000 1.0000
61.9200 624.0000 1.0000
61.9300 657.0000 1.0000
61.9400 649.0000 1.0000
61.9500 624.0000 1.0000
61.9600 696.0000 1.0000
61.9700 693.0000 1.0000
61.9800 707.0000 1.0000
61.9900 699.0000 1.0000
62.0000 712.0000 1.0000
62.0100 687.0000 1.0000
62.0200 739.0000 1.0000
62.0300 732.0000 1.0000
62.0400 769.0000 1.0000
62.0500 776.0000 1.0000
62.0600 790.0000 1.0000
62.0700 858.0000 1.0000
62.0800 867.0000 1.0000
62.0900 870.0000 1.0000
62.1000 883.0000 1.0000
62.1100 932.0000 1.0000
62.1200 955.0000 1.0000
62.1300 999.0000 1.0000
62.1400 1029.0000 1.0000
62.1500 1009.0000 1.0000
62.1600 1065.0000 1.0000
62.1700 1054.0000 1.0000
62.1800 1112.0000 1.0000
62.1900 1172.0000 1.0000
62.2000 1191.0000 1.0000
62.2100 1210.0000 1.0000
62.2200 1246.0000 1.0000
62.2300 1280.0000 1.0000
62.2400 1339.0000 1.0000
62.2500 1302.0000 1.0000
62.2600 1276.0000 1.0000
62.2700 1302.0000 1.0000
62.2800 1290.0000 1.0000
62.2900 1307.0000 1.0000
62.3000 1351.0000 1.0000
62.3100 1325.0000 1.0000
62.3200 1284.0000 1.0000
62.3300 1221.0000 1.0000
62.3400 1250.0000 1.0000
62.3500 1232.0000 1.0000
62.3600 1211.0000 1.0000
62.3700 1176.0000 1.0000
62.3800 1184.0000 1.0000
62.3900 1194.0000 1.0000
62.4000 1231.0000 1.0000
62.4100 1182.0000 1.0000
62.4200 1150.0000 1.0000
62.4300 1119.0000 1.0000
62.4400 1050.0000 1.0000
62.4500 1060.0000 1.0000
62.4600 1012.0000 1.0000
62.4700 1003.0000 1.0000
62.4800 1036.0000 1.0000
62.4900 1040.0000 1.0000
62.5000 974.0000 1.0000
62.5100 945.0000 1.0000
62.5200 923.0000 1.0000
62.5300 909.0000 1.0000
62.5400 903.0000 1.0000
62.5500 861.0000 1.0000
62.5600 825.0000 1.0000
62.5700 832.0000 1.0000
62.5800 826.0000 1.0000
62.5900 788.0000 1.0000
62.6000 778.0000 1.0000
62.6100 778.0000 1.0000
62.6200 754.0000 1.0000
62.6300 726.0000 1.0000
62.6400 727.0000 1.0000
62.6500 718.0000 1.0000
62.6600 710.0000 1.0000
62.6700 692.0000 1.0000
62.6800 692.0000 1.0000
62.6900 697.0000 1.0000
62.7000 668.0000 1.0000
62.7100 663.0000 1.0000
62.7200 641.0000 1.0000
62.7300 652.0000 1.0000
62.7400 672.0000 1.0000
62.7500 652.0000 1.0000
62.7600 646.0000 1.0000
62.7700 653.0000 1.0000
62.7800 646.0000 1.0000
62.7900 617.0000 1.0000
62.8000 609.0000 1.0000
62.8100 600.0000 1.0000
62.8200 592.0000 1.0000
62.8300 620.0000 1.0000
62.8400 633.0000 1.0000
62.8500 606.0000 1.0000
62.8600 582.0000 1.0000
62.8700 554.0000 1.0000
62.8800 610.0000 1.0000
62.8900 565.0000 1.0000
62.9000 575.0000 1.0000
62.9100 562.0000 1.0000
62.9200 572.0000 1.0000
62.9300 572.0000 1.0000
62.9400 628.0000 1.0000
62.9500 561.0000 1.0000
62.9600 563.0000 1.0000
62.9700 568.0000 1.0000
62.9800 591.0000 1.0000
62.9900 590.0000 1.0000
63.0000 613.0000 1.0000
63.0100 569.0000 1.0000
63.0200 564.0000 1.0000
63.0300 568.0000 1.0000
63.0400 570.0000 1.0000
63.0500 556.0000 1.0000
63.0600 555.0000 1.0000
63.0700 537.0000 1.0000
63.0800 568.0000 1.0000
63.0900 567.0000 1.0000
63.1000 565.0000 1.0000
63.1100 578.0000 1.0000
63.1200 587.0000 1.0000
63.1300 563.0000 1.0000
63.1400 558.0000 1.0000
63.1500 533.0000 1.0000
63.1600 539.0000 1.0000
63.1700 572.0000 1.0000
63.1800 530.0000 1.0000
63.1900 560.0000 1.0000
63.2000 536.0000 1.0000
63.2100 561.0000 1.0000
63.2200 571.0000 1.0000
63.2300 555.0000 1.0000
63.2400 555.0000 1.0000
63.2500 538.0000 1.0000
63.2600 561.0000 1.0000
63.2700 555.0000 1.0000
63.2800 569.0000 1.0000
63.2900 548.0000 1.0000
63.3000 539.0000 1.0000
63.3100 632.0000 1.0000
63.3200 556.0000 1.0000
63.3300 512.0000 1.0000
63.3400 538.0000 1.0000
63.3500 530.0000 1.0000
63.3600 541.0000 1.0000
63.3700 550.0000 1.0000
63.3800 559.0000 1.0000
63.3900 518.0000 1.0000
63.4000 531.0000 1.0000
63.4100 503.0000 1.0000
63.4200 568.0000 1.0000
63.4300 545.0000 1.0000
63.4400 543.0000 1.0000
63.4500 494.0000 1.0000
63.4600 514.0000 1.0000
63.4700 542.0000 1.0000
63.4800 559.0000 1.0000
63.4900 549.0000 1.0000
63.5000 534.0000 1.0000
63.5100 561.0000 1.0000
63.5200 528.0000 1.0000
63.5300 550.0000 1.0000
63.5400 575.0000 1.0000
63.5500 556.0000 1.0000
63.5600 547.0000 1.0000
63.5700 565.0000 1.0000
63.5800 537.0000 1.0000
63.5900 525.0000 1.0000
63.6000 534.0000 1.0000
63.6100 503.0000 1.0000
63.6200 539.0000 1.0000
63.6300 497.0000 1.0000
63.6400 515.0000 1.0000
63.6500 507.0000 1.0000
63.6600 526.0000 1.0000
63.6700 549.0000 1.0000
63.6800 551.0000 1.0000
63.6900 530.0000 1.0000
63.7000 518.0000 1.0000
63.7100 516.0000 1.0000
63.7200 581.0000 1.0000
63.7300 530.0000 1.0000
63.7400 536.0000 1.0000
63.7500 540.0000 1.0000
63.7600 533.0000 1.0000
63.7700 538.0000 1.0000
63.7800 523.0000 1.0000
63.7900 535.0000 1.0000
63.8000 517.0000 1.0000
63.8100 522.0000 1.0000
63.8200 558.0000 1.0000
63.8300 527.0000 1.0000
63.8400 534.0000 1.0000
63.8500 512.0000 1.0000
63.8600 552.0000 1.0000
63.8700 527.0000 1.0000
63.8800 505.0000 1.0000
63.8900 522.0000 1.0000
63.9000 527.0000 1.0000
63.9100 495.0000 1.0000
63.9200 508.0000 1.0000
63.9300 505.0000 1.0000
63.9400 534.0000 1.0000
63.9500 553.0000 1.0000
63.9600 539.0000 1.0000
63.9700 511.0000 1.0000
63.9800 523.0000 1.0000
63.9900 523.0000 1.0000
64.0000 546.0000 1.0000
64.0100 522.0000 1.0000
64.0200 558.0000 1.0000
64.0300 521.0000 1.0000
64.0400 507.0000 1.0000
64.0500 515.0000 1.0000
64.0600 555.0000 1.0000
64.0700 485.0000 1.0000
64.0800 539.0000 1.0000
64.0900 552.0000 1.0000
64.1000 513.0000 1.0000
64.1100 520.0000 1.0000
64.1200 512.0000 1.0000
64.1300 481.0000 1.0000
64.1400 514.0000 1.0000
64.1500 570.0000 1.0000
64.1600 519.0000 1.0000
64.1700 527.0000 1.0000
64.1800 511.0000 1.0000
64.1900 518.0000 1.0000
64.2000 524.0000 1.0000
64.2100 573.0000 1.0000
64.2200 547.0000 1.0000
64.2300 519.0000 1.0000
64.2400 542.0000 1.0000
64.2500 527.0000 1.0000
64.2600 542.0000 1.0000
64.2700 527.0000 1.0000
64.2800 563.0000 1.0000
64.2900 594.0000 1.0000
64.3000 578.0000 1.0000
64.3100 538.0000 1.0000
64.3200 531.0000 1.0000
64.3300 534.0000 1.0000
64.3400 525.0000 1.0000
64.3500 516.0000 1.0000
64.3600 501.0000 1.0000
64.3700 517.0000 1.0000
64.3800 529.0000 1.0000
64.3900 577.0000 1.0000
64.4000 525.0000 1.0000
64.4100 552.0000 1.0000
64.4200 517.0000 1.0000
64.4300 549.0000 1.0000
64.4400 565.0000 1.0000
64.4500 561.0000 1.0000
64.4600 551.0000 1.0000
64.4700 531.0000 1.0000
64.4800 545.0000 1.0000
64.4900 533.0000 1.0000
64.5000 555.0000 1.0000
64.5100 564.0000 1.0000
64.5200 522.0000 1.0000
64.5300 546.0000 1.0000
64.5400 567.0000 1.0000
64.5500 527.0000 1.0000
64.5600 531.0000 1.0000
64.5700 508.0000 1.0000
64.5800 568.0000 1.0000
64.5900 569.0000 1.0000
64.6000 567.0000 1.0000
64.6100 545.0000 1.0000
64.6200 575.0000 1.0000
64.6300 564.0000 1.0000
64.6400 561.0000 1.0000
64.6500 567.0000 1.0000
64.6600 566.0000 1.0000
64.6700 553.0000 1.0000
64.6800 566.0000 1.0000
64.6900 554.0000 1.0000
64.7000 579.0000 1.0000
64.7100 580.0000 1.0000
64.7200 554.0000 1.0000
64.7300 548.0000 1.0000
64.7400 600.0000 1.0000
64.7500 572.0000 1.0000
64.7600 548.0000 1.0000
64.7700 588.0000 1.0000
64.7800 551.0000 1.0000
64.7900 591.0000 1.0000
64.8000 586.0000 1.0000
64.8100 559.0000 1.0000
64.8200 594.0000 1.0000
64.8300 593.0000 1.0000
64.8400 583.0000 1.0000
64.8500 598.0000 1.0000
64.8600 561.0000 1.0000
64.8700 579.0000 1.0000
64.8800 577.0000 1.0000
64.8900 590.0000 1.0000
64.9000 536.0000 1.0000
64.9100 600.0000 1.0000
64.9200 568.0000 1.0000
64.9300 530.0000 1.0000
64.9400 552.0000 1.0000
64.9500 557.0000 1.0000
64.9600 560.0000 1.0000
64.9700 556.0000 1.0000
64.9800 539.0000 1.0000
64.9900 573.0000 1.0000
65.0000 600.0000 1.0000
65.0100 589.0000 1.0000
65.0200 603.0000 1.0000
65.0300 570.0000 1.0000
65.0400 542.0000 1.0000
65.0500 585.0000 1.0000
65.0600 584.0000 1.0000
65.0700 589.0000 1.0000
65.0800 585.0000 1.0000
65.0900 609.0000 1.0000
65.1000 576.0000 1.0000
65.1100 605.0000 1.0000
65.1200 554.0000 1.0000
65.1300 596.0000 1.0000
65.1400 618.0000 1.0000
65.1500 576.0000 1.0000
65.1600 584.0000 1.0000
65.1700 592.0000 1.0000
65.1800 533.0000 1.0000
65.1900 540.0000 1.0000
65.2000 563.0000 1.0000
65.2100 581.0000 1.0000
65.2200 554.0000 1.0000
65.2300 554.0000 1.0000
65.2400 551.0000 1.0000
65.2500 562.0000 1.0000
65.2600 535.0000 1.0000
65.2700 595.0000 1.0000
65.2800 541.0000 1.0000
65.2900 527.0000 1.0000
65.3000 563.0000 1.0000
65.3100 546.0000 1.0000
65.3200 481.0000 1.0000
65.3300 545.0000 1.0000
65.3400 533.0000 1.0000
65.3500 564.0000 1.0000
65.3600 560.0000 1.0000
65.3700 559.0000 1.0000
65.3800 559.0000 1.0000
65.3900 530.0000 1.0000
65.4000 560.0000 1.0000
65.4100 550.0000 1.0000
65.4200 530.0000 1.0000
65.4300 579.0000 1.0000
65.4400 567.0000 1.0000
65.4500 572.0000 1.0000
65.4600 550.0000 1.0000
65.4700 552.0000 1.0000
65.4800 558.0000 1.0000
65.4900 527.0000 1.0000
65.5000 519.0000 1.0000
65.5100 562.0000 1.0000
65.5200 587.0000 1.0000
65.5300 542.0000 1.0000
65.5400 550.0000 1.0000
65.5500 560.0000 1.0000
65.5600 540.0000 1.0000
65.5700 574.0000 1.0000
65.5800 551.0000 1.0000
65.5900 571.0000 1.0000
65.6000 560.0000 1.0000
65.6100 587.0000 1.0000
65.6200 603.0000 1.0000
65.6300 595.0000 1.0000
65.6400 568.0000 1.0000
65.6500 596.0000 1.0000
65.6600 565.0000 1.0000
65.6700 599.0000 1.0000
65.6800 581.0000 1.0000
65.6900 547.0000 1.0000
65.7000 562.0000 1.0000
65.7100 551.0000 1.0000
65.7200 555.0000 1.0000
65.7300 630.0000 1.0000
65.7400 587.0000 1.0000
65.7500 598.0000 1.0000
65.7600 623.0000 1.0000
65.7700 602.0000 1.0000
65.7800 638.0000 1.0000
65.7900 613.0000 1.0000
65.8000 629.0000 1.0000
65.8100 618.0000 1.0000
65.8200 638.0000 1.0000
65.8300 672.0000 1.0000
65.8400 632.0000 1.0000
65.8500 716.0000 1.0000
65.8600 646.0000 1.0000
65.8700 654.0000 1.0000
65.8800 679.0000 1.0000
65.8900 686.0000 1.0000
65.9000 719.0000 1.0000
65.9100 774.0000 1.0000
65.9200 759.0000 1.0000
65.9300 733.0000 1.0000
65.9400 722.0000 1.0000
65.9500 805.0000 1.0000
65.9600 797.0000 1.0000
65.9700 770.0000 1.0000
65.9800 814.0000 1.0000
65.9900 829.0000 1.0000
66.0000 882.0000 1.0000
66.0100 892.0000 1.0000
66.0200 930.0000 1.0000
66.0300 982.0000 1.0000
66.0400 1024.0000 1.0000
66.0500 1031.0000 1.0000
66.0600 1103.0000 1.0000
66.0700 1146.0000 1.0000
66.0800 1199.0000 1.0000
66.0900 1265.0000 1.0000
66.1000 1306.0000 1.0000
66.1100 1376.0000 1.0000
66.1200 1478.0000 1.0000
66.1300 1569.0000 1.0000
66.1400 1678.0000 1.0000
66.1500 1728.0000 1.0000
66.1600 1876.0000 1.0000
66.1700 2022.0000 1.0000
66.1800 2052.0000 1.0000
66.1900 2157.0000 1.0000
66.2000 2238.0000 1.0000
66.2100 2224.0000 1.0000
66.2200 2298.0000 1.0000
66.2300 2334.0000 1.0000
66.2400 2301.0000 1.0000
66.2500 2307.0000 1.0000
66.2600 2255.0000 1.0000
66.2700 2221.0000 1.0000
66.2800 2119.0000 1.0000
66.2900 2159.0000 1.0000
66.3000 2129.0000 1.0000
66.3100 2105.0000 1.0000
66.3200 2041.0000 1.0000
66.3300 1978.0000 1.0000
66.3400 1996.0000 1.0000
66.3500 1956.0000 1.0000
66.3600 1940.0000 1.0000
66.3700 1964.0000 1.0000
66.3800 1862.0000 1.0000
66.3900 1867.0000 1.0000
66.4000 1798.0000 1.0000
66.4100 1777.0000 1.0000
66.4200 1756.0000 1.0000
66.4300 1761.0000 1.0000
66.4400 1623.0000 1.0000
66.4500 1619.0000 1.0000
66.4600 1593.0000 1.0000
66.4700 1554.0000 1.0000
66.4800 1461.0000 1.0000
66.4900 1371.0000 1.0000
66.5000 1278.0000 1.0000
66.5100 1217.0000 1.0000
66.5200 1225.0000 1.0000
66.5300 1173.0000 1.0000
66.5400 1109.0000 1.0000
66.5500 1077.0000 1.0000
66.5600 1032.0000 1.0000
66.5700 985.0000 1.0000
66.5800 948.0000 1.0000
66.5900 903.0000 1.0000
66.6000 906.0000 1.0000
66.6100 911.0000 1.0000
66.6200 814.0000 1.0000
66.6300 846.0000 1.0000
66.6400 836.0000 1.0000
66.6500 753.0000 1.0000
66.6600 778.0000 1.0000
66.6700 786.0000 1.0000
66.6800 749.0000 1.0000
66.6900 744.0000 1.0000
66.7000 705.0000 1.0000
66.7100 733.0000 1.0000
66.7200 678.0000 1.0000
66.7300 641.0000 1.0000
66.7400 674.0000 1.0000
66.7500 633.0000 1.0000
66.7600 648.0000 1.0000
66.7700 624.0000 1.0000
66.7800 610.0000 1.0000
66.7900 635.0000 1.0000
66.8000 627.0000 1.0000
66.8100 655.0000 1.0000
66.8200 592.0000 1.0000
66.8300 576.0000 1.0000
66.8400 581.0000 1.0000
66.8500 572.0000 1.0000
66.8600 557.0000 1.0000
66.8700 605.0000 1.0000
66.8800 628.0000 1.0000
66.8900 578.0000 1.0000
66.9000 554.0000 1.0000
66.9100 555.0000 1.0000
66.9200 560.0000 1.0000
66.9300 589.0000 1.0000
66.9400 544.0000 1.0000
66.9500 566.0000 1.0000
66.9600 563.0000 1.0000
66.9700 538.0000 1.0000
66.9800 564.0000 1.0000
66.9900 511.0000 1.0000
67.0000 520.0000 1.0000
67.0100 538.0000 1.0000
67.0200 528.0000 1.0000
67.0300 534.0000 1.0000
67.0400 523.0000 1.0000
67.0500 504.0000 1.0000
67.0600 560.0000 1.0000
67.0700 538.0000 1.0000
67.0800 528.0000 1.0000
67.0900 526.0000 1.0000
67.1000 548.0000 1.0000
67.1100 502.0000 1.0000
67.1200 485.0000 1.0000
67.1300 511.0000 1.0000
67.1400 545.0000 1.0000
67.1500 535.0000 1.0000
67.1600 492.0000 1.0000
67.1700 523.0000 1.0000
67.1800 560.0000 1.0000
67.1900 505.0000 1.0000
67.2000 516.0000 1.0000
67.2100 520.0000 1.0000
67.2200 494.0000 1.0000
67.2300 502.0000 1.0000
67.2400 517.0000 1.0000
67.2500 495.0000 1.0000
67.2600 537.0000 1.0000
67.2700 502.0000 1.0000
67.2800 525.0000 1.0000
67.2900 479.0000 1.0000
67.3000 509.0000 1.0000
67.3100 501.0000 1.0000
67.3200 490.0000 1.0000
67.3300 459.0000 1.0000
67.3400 510.0000 1.0000
67.3500 471.0000 1.0000
67.3600 489.0000 1.0000
67.3700 532.0000 1.0000
67.3800 541.0000 1.0000
67.3900 512.0000 1.0000
67.4000 483.0000 1.0000
67.4100 482.0000 1.0000
67.4200 492.0000 1.0000
67.4300 492.0000 1.0000
67.4400 476.0000 1.0000
67.4500 485.0000 1.0000
67.4600 514.0000 1.0000
67.4700 488.0000 1.0000
67.4800 497.0000 1.0000
67.4900 483.0000 1.0000
67.5000 462.0000 1.0000
67.5100 488.0000 1.0000
67.5200 507.0000 1.0000
67.5300 489.0000 1.0000
67.5400 482.0000 1.0000
67.5500 486.0000 1.0000
67.5600 483.0000 1.0000
67.5700 482.0000 1.0000
67.5800 492.0000 1.0000
67.5900 484.0000 1.0000
67.6000 504.0000 1.0000
67.6100 491.0000 1.0000
67.6200 509.0000 1.0000
67.6300 497.0000 1.0000
67.6400 496.0000 1.0000
67.6500 494.0000 1.0000
67.6600 472.0000 1.0000
67.6700 480.0000 1.0000
67.6800 502.0000 1.0000
67.6900 489.0000 1.0000
67.7000 506.0000 1.0000
67.7100 488.0000 1.0000
67.7200 500.0000 1.0000
67.7300 497.0000 1.0000
67.7400 482.0000 1.0000
67.7500 484.0000 1.0000
67.7600 463.0000 1.0000
67.7700 487.0000 1.0000
67.7800 495.0000 1.0000
67.7900 500.0000 1.0000
67.8000 479.0000 1.0000
67.8100 470.0000 1.0000
67.8200 488.0000 1.0000
67.8300 500.0000 1.0000
67.8400 498.0000 1.0000
67.8500 491.0000 1.0000
67.8600 486.0000 1.0000
67.8700 528.0000 1.0000
67.8800 482.0000 1.0000
67.8900 455.0000 1.0000
67.9000 494.0000 1.0000
67.9100 466.0000 1.0000
67.9200 475.0000 1.0000
67.9300 433.0000 1.0000
67.9400 487.0000 1.0000
67.9500 487.0000 1.0000
67.9600 519.0000 1.0000
67.9700 497.0000 1.0000
67.9800 482.0000 1.0000
67.9900 488.0000 1.0000
68.0000 465.0000 1.0000
68.0100 451.0000 1.0000
68.0200 432.0000 1.0000
68.0300 458.0000 1.0000
68.0400 457.0000 1.0000
68.0500 474.0000 1.0000
68.0600 474.0000 1.0000
68.0700 486.0000 1.0000
68.0800 496.0000 1.0000
68.0900 498.0000 1.0000
68.1000 515.0000 1.0000
68.1100 475.0000 1.0000
68.1200 457.0000 1.0000
68.1300 520.0000 1.0000
68.1400 471.0000 1.0000
68.1500 507.0000 1.0000
68.1600 499.0000 1.0000
68.1700 481.0000 1.0000
68.1800 470.0000 1.0000
68.1900 471.0000 1.0000
68.2000 510.0000 1.0000
68.2100 487.0000 1.0000
68.2200 480.0000 1.0000
68.2300 495.0000 1.0000
68.2400 445.0000 1.0000
68.2500 480.0000 1.0000
68.2600 477.0000 1.0000
68.2700 465.0000 1.0000
68.2800 464.0000 1.0000
68.2900 477.0000 1.0000
68.3000 470.0000 1.0000
68.3100 491.0000 1.0000
68.3200 485.0000 1.0000
68.3300 484.0000 1.0000
68.3400 478.0000 1.0000
68.3500 454.0000 1.0000
68.3600 494.0000 1.0000
68.3700 484.0000 1.0000
68.3800 492.0000 1.0000
68.3900 445.0000 1.0000
68.4000 477.0000 1.0000
68.4100 488.0000 1.0000
68.4200 489.0000 1.0000
68.4300 493.0000 1.0000
68.4400 469.0000 1.0000
68.4500 479.0000 1.0000
68.4600 455.0000 1.0000
68.4700 444.0000 1.0000
68.4800 453.0000 1.0000
68.4900 505.0000 1.0000
68.5000 491.0000 1.0000
68.5100 470.0000 1.0000
68.5200 473.0000 1.0000
68.5300 472.0000 1.0000
68.5400 505.0000 1.0000
68.5500 472.0000 1.0000
68.5600 455.0000 1.0000
68.5700 453.0000 1.0000
68.5800 447.0000 1.0000
68.5900 432.0000 1.0000
68.6000 464.0000 1.0000
68.6100 467.0000 1.0000
68.6200 498.0000 1.0000
68.6300 442.0000 1.0000
68.6400 477.0000 1.0000
68.6500 478.0000 1.0000
68.6600 432.0000 1.0000
68.6700 486.0000 1.0000
68.6800 475.0000 1.0000
68.6900 495.0000 1.0000
68.7000 449.0000 1.0000
68.7100 465.0000 1.0000
68.7200 490.0000 1.0000
68.7300 460.0000 1.0000
68.7400 494.0000 1.0000
68.7500 490.0000 1.0000
68.7600 482.0000 1.0000
68.7700 459.0000 1.0000
68.7800 457.0000 1.0000
68.7900 458.0000 1.0000
68.8000 430.0000 1.0000
68.8100 436.0000 1.0000
68.8200 488.0000 1.0000
68.8300 464.0000 1.0000
68.8400 455.0000 1.0000
68.8500 479.0000 1.0000
68.8600 440.0000 1.0000
68.8700 470.0000 1.0000
68.8800 472.0000 1.0000
68.8900 486.0000 1.0000
68.9000 464.0000 1.0000
68.9100 458.0000 1.0000
68.9200 478.0000 1.0000
68.9300 470.0000 1.0000
68.9400 441.0000 1.0000
68.9500 434.0000 1.0000
68.9600 459.0000 1.0000
68.9700 476.0000 1.0000
68.9800 467.0000 1.0000
68.9900 481.0000 1.0000
69.0000 442.0000 1.0000
69.0100 466.0000 1.0000
69.0200 485.0000 1.0000
69.0300 473.0000 1.0000
69.0400 489.0000 1.0000
69.0500 460.0000 1.0000
69.0600 460.0000 1.0000
69.0700 465.0000 1.0000
69.0800 437.0000 1.0000
69.0900 458.0000 1.0000
69.1000 479.0000 1.0000
69.1100 457.0000 1.0000
69.1200 458.0000 1.0000
69.1300 453.0000 1.0000
69.1400 486.0000 1.0000
69.1500 458.0000 1.0000
69.1600 446.0000 1.0000
69.1700 450.0000 1.0000
69.1800 459.0000 1.0000
69.1900 473.0000 1.0000
69.2000 458.0000 1.0000
69.2100 457.0000 1.0000
69.2200 462.0000 1.0000
69.2300 439.0000 1.0000
69.2400 442.0000 1.0000
69.2500 472.0000 1.0000
69.2600 483.0000 1.0000
69.2700 476.0000 1.0000
69.2800 439.0000 1.0000
69.2900 424.0000 1.0000
69.3000 410.0000 1.0000
69.3100 430.0000 1.0000
69.3200 445.0000 1.0000
69.3300 461.0000 1.0000
69.3400 472.0000 1.0000
69.3500 436.0000 1.0000
69.3600 461.0000 1.0000
69.3700 434.0000 1.0000
69.3800 480.0000 1.0000
69.3900 470.0000 1.0000
69.4000 445.0000 1.0000
69.4100 454.0000 1.0000
69.4200 452.0000 1.0000
69.4300 448.0000 1.0000
69.4400 456.0000 1.0000
69.4500 490.0000 1.0000
69.4600 420.0000 1.0000
69.4700 465.0000 1.0000
69.4800 450.0000 1.0000
69.4900 484.0000 1.0000
69.5000 468.0000 1.0000
69.5100 443.0000 1.0000
69.5200 465.0000 1.0000
69.5300 490.0000 1.0000
69.5400 448.0000 1.0000
69.5500 406.0000 1.0000
69.5600 445.0000 1.0000
69.5700 458.0000 1.0000
69.5800 474.0000 1.0000
69.5900 472.0000 1.0000
69.6000 441.0000 1.0000
69.6100 473.0000 1.0000
69.6200 502.0000 1.0000
69.6300 457.0000 1.0000
69.6400 448.0000 1.0000
69.6500 483.0000 1.0000
69.6600 453.0000 1.0000
69.6700 492.0000 1.0000
69.6800 448.0000 1.0000
69.6900 474.0000 1.0000
69.7000 485.0000 1.0000
69.7100 418.0000 1.0000
69.7200 438.0000 1.0000
69.7300 466.0000 1.0000
69.7400 454.0000 1.0000
69.7500 445.0000 1.0000
69.7600 470.0000 1.0000
69.7700 445.0000 1.0000
69.7800 471.0000 1.0000
69.7900 491.0000 1.0000
69.8000 434.0000 1.0000
69.8100 460.0000 1.0000
69.8200 471.0000 1.0000
69.8300 460.0000 1.0000
69.8400 437.0000 1.0000
69.8500 457.0000 1.0000
69.8600 455.0000 1.0000
69.8700 464.0000 1.0000
69.8800 465.0000 1.0000
69.8900 467.0000 1.0000
69.9000 450.0000 1.0000
69.9100 447.0000 1.0000
69.9200 470.0000 1.0000
69.9300 449.0000 1.0000
69.9400 449.0000 1.0000
69.9500 469.0000 1.0000
69.9600 454.0000 1.0000
69.9700 442.0000 1.0000
69.9800 446.0000 1.0000
69.9900 445.0000 1.0000
70.0000 429.0000 1.0000
*RAS_INT_END
*RAS_TEMPERATURE_START
*RAS_TEMPERATURE_END
*RAS_DATA_END
