Date	2021年06月15日火曜日 04時49分13秒
Spectrometers	USB2+H05879
ダーク	使用
リファレンス	使用
積分時間[msec]	10
平均回数	280
ｽﾑｰｼﾞﾝｸﾞ	10
Electrical Dark	USE
ピクセル数	2048
計測モード	吸光度
保存開始波長[nm]	190.664
保存終了波長[nm]	884.878
保存ﾋﾟｯﾁ波長[nm]	全波長

>>>>>>>>>> Data Start <<<<<<<<<<<<
190.664	0.000000
191.040	0.000000
191.415	0.000000
191.791	-2.338316
192.166	-0.585592
192.542	-0.662827
192.917	0.000000
193.293	-0.530783
193.668	-0.591123
194.044	-0.966009
194.419	0.000000
194.794	-1.342755
195.170	-1.268490
195.545	-1.185147
195.920	-1.055866
196.296	-0.940494
196.671	-0.783330
197.046	-0.627145
197.421	-0.575727
197.796	-0.557871
198.171	-0.522101
198.546	-0.474753
198.922	-0.430223
199.297	-0.408759
199.672	-0.385479
200.047	-0.365327
200.422	-0.338797
200.796	-0.325269
201.171	-0.307278
201.546	-0.303350
201.921	-0.302770
202.296	-0.294151
202.671	-0.264047
203.045	-0.238906
203.420	-0.222676
203.795	-0.212955
204.170	-0.206631
204.544	-0.204505
204.919	-0.210578
205.294	-0.203225
205.668	-0.194945
206.043	-0.179136
206.417	-0.183497
206.792	-0.176884
207.166	-0.172397
207.541	-0.175229
207.915	-0.184742
208.289	-0.164677
208.664	-0.165367
209.038	-0.162901
209.412	-0.145107
209.787	-0.122147
210.161	-0.109127
210.535	-0.115627
210.909	-0.109902
211.284	-0.117871
211.658	-0.121603
212.032	-0.123377
212.406	-0.132069
212.780	-0.123353
213.154	-0.122960
213.528	-0.128744
213.902	-0.134114
214.276	-0.128731
214.650	-0.130268
215.024	-0.120995
215.398	-0.117868
215.772	-0.101143
216.145	-0.103921
216.519	-0.101186
216.893	-0.094099
217.267	-0.101809
217.640	-0.108326
218.014	-0.098314
218.388	-0.094481
218.761	-0.105964
219.135	-0.094540
219.508	-0.095910
219.882	-0.095916
220.256	-0.091620
220.629	-0.083372
221.003	-0.086795
221.376	-0.081499
221.749	-0.088324
222.123	-0.087904
222.496	-0.090251
222.869	-0.088965
223.243	-0.077782
223.616	-0.080898
223.989	-0.081592
224.362	-0.075218
224.736	-0.080572
225.109	-0.076316
225.482	-0.072000
225.855	-0.083144
226.228	-0.081809
226.601	-0.074091
226.974	-0.061625
227.347	-0.052511
227.720	-0.051142
228.093	-0.047289
228.466	-0.055533
228.839	-0.056554
229.212	-0.063690
229.585	-0.070026
229.957	-0.068538
230.330	-0.064482
230.703	-0.061734
231.076	-0.072651
231.448	-0.079671
231.821	-0.084091
232.194	-0.086944
232.566	-0.083458
232.939	-0.095890
233.311	-0.099090
233.684	-0.087951
234.056	-0.086578
234.429	-0.082493
234.801	-0.092524
235.174	-0.085845
235.546	-0.090158
235.918	-0.091003
236.291	-0.089650
236.663	-0.083966
237.035	-0.076845
237.408	-0.062221
237.780	-0.048722
238.152	-0.047196
238.524	-0.057917
238.896	-0.050040
239.268	-0.047304
239.641	-0.045855
240.013	-0.035325
240.385	-0.030731
240.757	-0.021687
241.129	-0.016715
241.500	-0.019308
241.872	-0.018440
242.244	-0.018026
242.616	-0.022572
242.988	-0.025907
243.360	-0.011398
243.731	-0.000839
244.103	-0.000870
244.475	-0.004252
244.847	-0.002115
245.218	-0.007371
245.590	-0.006691
245.961	-0.005016
246.333	-0.001773
246.705	-0.006434
247.076	0.005364
247.448	0.005030
247.819	-0.003816
248.190	-0.001459
248.562	-0.002794
248.933	-0.003854
249.305	-0.002168
249.676	-0.000791
250.047	-0.002468
250.418	0.003178
250.790	0.002372
251.161	0.001344
251.532	-0.004333
251.903	0.002590
252.274	0.016335
252.645	0.021961
253.016	0.025343
253.387	0.007397
253.758	0.007733
254.129	0.013369
254.500	0.018056
254.871	0.012514
255.242	0.007233
255.613	0.005468
255.984	-0.000775
256.355	0.002647
256.725	0.008720
257.096	0.012540
257.467	0.010837
257.838	0.013705
258.208	0.016939
258.579	0.019971
258.949	0.017312
259.320	0.018420
259.690	0.011193
260.061	0.009538
260.431	0.013717
260.802	0.016455
261.172	0.023312
261.543	0.021862
261.913	0.020558
262.283	0.013807
262.654	0.010818
263.024	0.014465
263.394	0.019256
263.764	0.025100
264.135	0.023598
264.505	0.018734
264.875	0.013555
265.245	0.018044
265.615	0.014887
265.985	0.013085
266.355	0.017589
266.725	0.016140
267.095	0.019921
267.465	0.023125
267.835	0.016245
268.205	0.005754
268.575	0.006914
268.944	0.013144
269.314	0.010077
269.684	0.011175
270.054	0.012984
270.423	0.018645
270.793	0.020477
271.163	0.022529
271.532	0.019356
271.902	0.019775
272.271	0.016534
272.641	0.021874
273.010	0.014955
273.380	0.013807
273.749	0.011268
274.119	0.010595
274.488	0.019753
274.857	0.019876
275.227	0.022346
275.596	0.021944
275.965	0.025902
276.335	0.025469
276.704	0.020374
277.073	0.025286
277.442	0.026613
277.811	0.032946
278.180	0.037410
278.549	0.041281
278.918	0.040522
279.287	0.043775
279.656	0.047499
280.025	0.055206
280.394	0.054016
280.763	0.063667
281.132	0.071073
281.501	0.078615
281.869	0.075368
282.238	0.061458
282.607	0.059022
282.976	0.060252
283.344	0.073264
283.713	0.073488
284.081	0.076389
284.450	0.079589
284.819	0.080267
285.187	0.081300
285.556	0.081670
285.924	0.077016
286.292	0.070246
286.661	0.069607
287.029	0.069364
287.398	0.068823
287.766	0.064254
288.134	0.060265
288.502	0.056633
288.871	0.057364
289.239	0.051003
289.607	0.057655
289.975	0.063632
290.343	0.064240
290.711	0.063392
291.079	0.054071
291.447	0.057633
291.815	0.055675
292.183	0.057711
292.551	0.063950
292.919	0.069429
293.287	0.069217
293.655	0.074128
294.022	0.075403
294.390	0.081077
294.758	0.088526
295.126	0.086764
295.493	0.092881
295.861	0.098311
296.229	0.096449
296.596	0.097877
296.964	0.101795
297.331	0.095886
297.699	0.102967
298.066	0.107349
298.434	0.112403
298.801	0.118440
299.168	0.115491
299.536	0.121734
299.903	0.121545
300.270	0.117210
300.638	0.120626
301.005	0.131521
301.372	0.131238
301.739	0.137037
302.106	0.139638
302.473	0.138919
302.840	0.150106
303.207	0.164938
303.574	0.180492
303.941	0.197002
304.308	0.204915
304.675	0.217300
305.042	0.240505
305.409	0.257009
305.776	0.269993
306.143	0.290241
306.509	0.309435
306.876	0.341242
307.243	0.363663
307.610	0.395276
307.976	0.423439
308.343	0.447481
308.709	0.472818
309.076	0.505448
309.442	0.538679
309.809	0.573361
310.175	0.605229
310.542	0.631894
310.908	0.656294
311.275	0.679730
311.641	0.709575
312.007	0.739331
312.373	0.777383
312.740	0.805388
313.106	0.834096
313.472	0.870101
313.838	0.903308
314.204	0.931906
314.570	0.946084
314.936	0.970658
315.302	0.993570
315.668	1.017461
316.034	1.048449
316.400	1.083735
316.766	1.110030
317.132	1.140764
317.498	1.162444
317.864	1.181183
318.230	1.206050
318.595	1.231879
318.961	1.257215
319.327	1.281500
319.692	1.302112
320.058	1.312217
320.424	1.326300
320.789	1.349648
321.155	1.368357
321.520	1.384986
321.886	1.409112
322.251	1.431197
322.616	1.448831
322.982	1.460889
323.347	1.469772
323.712	1.483918
324.078	1.490168
324.443	1.499969
324.808	1.508415
325.173	1.522587
325.539	1.538745
325.904	1.549429
326.269	1.556217
326.634	1.569982
326.999	1.578333
327.364	1.588192
327.729	1.601047
328.094	1.613615
328.459	1.619467
328.823	1.626533
329.188	1.635470
329.553	1.636207
329.918	1.649598
330.283	1.658187
330.647	1.668222
331.012	1.680944
331.377	1.688895
331.741	1.696256
332.106	1.702640
332.470	1.707140
332.835	1.710901
333.199	1.716471
333.564	1.726787
333.928	1.733812
334.293	1.740345
334.657	1.741898
335.021	1.747998
335.386	1.750881
335.750	1.752699
336.114	1.753409
336.478	1.756454
336.843	1.755379
337.207	1.761219
337.571	1.765890
337.935	1.770215
338.299	1.772578
338.663	1.772830
339.027	1.773964
339.391	1.775833
339.755	1.778029
340.119	1.780883
340.483	1.779202
340.846	1.781778
341.210	1.780948
341.574	1.780884
341.938	1.779503
342.301	1.784490
342.665	1.786570
343.029	1.789014
343.392	1.792189
343.756	1.794528
344.119	1.795587
344.483	1.799506
344.846	1.800559
345.210	1.801123
345.573	1.800790
345.937	1.801837
346.300	1.804050
346.663	1.804841
347.027	1.807822
347.390	1.809276
347.753	1.811284
348.116	1.814419
348.479	1.818326
348.843	1.817585
349.206	1.817037
349.569	1.815011
349.932	1.814662
350.295	1.816697
350.658	1.816549
351.021	1.818292
351.383	1.819974
351.746	1.821072
352.109	1.820605
352.472	1.820496
352.835	1.819222
353.197	1.822796
353.560	1.825383
353.923	1.826281
354.285	1.827329
354.648	1.826485
355.011	1.826242
355.373	1.826391
355.736	1.829298
356.098	1.825989
356.461	1.827968
356.823	1.830485
357.185	1.835455
357.548	1.836391
357.910	1.834860
358.272	1.834914
358.635	1.831573
358.997	1.831613
359.359	1.834060
359.721	1.833699
360.083	1.836399
360.445	1.839412
360.807	1.838232
361.169	1.837581
361.531	1.838943
361.893	1.839559
362.255	1.841605
362.617	1.843226
362.979	1.843418
363.341	1.840979
363.703	1.842583
364.064	1.843743
364.426	1.845097
364.788	1.844470
365.149	1.846949
365.511	1.849452
365.873	1.851381
366.234	1.853722
366.596	1.856693
366.957	1.857126
367.319	1.860468
367.680	1.860176
368.042	1.858593
368.403	1.862058
368.764	1.864528
369.126	1.864459
369.487	1.865523
369.848	1.863627
370.209	1.866842
370.570	1.869067
370.931	1.872077
371.293	1.872594
371.654	1.873418
372.015	1.875369
372.376	1.877012
372.737	1.876405
373.098	1.875454
373.458	1.877652
373.819	1.881569
374.180	1.882932
374.541	1.884455
374.902	1.884387
375.263	1.886463
375.623	1.887387
375.984	1.887993
376.345	1.886961
376.705	1.888528
377.066	1.891291
377.426	1.893210
377.787	1.891873
378.147	1.892507
378.508	1.890749
378.868	1.892179
379.228	1.891010
379.589	1.889682
379.949	1.888417
380.309	1.889305
380.670	1.890178
381.030	1.888963
381.390	1.887896
381.750	1.887077
382.110	1.885644
382.470	1.886529
382.830	1.886840
383.190	1.887190
383.550	1.886466
383.910	1.888338
384.270	1.888791
384.630	1.887977
384.990	1.888929
385.350	1.890052
385.709	1.889419
386.069	1.891311
386.429	1.891168
386.788	1.893120
387.148	1.895175
387.508	1.897682
387.867	1.898727
388.227	1.899569
388.586	1.900077
388.946	1.900802
389.305	1.900775
389.665	1.902900
390.024	1.902512
390.383	1.902370
390.743	1.904134
391.102	1.903896
391.461	1.902710
391.820	1.902578
392.179	1.901273
392.539	1.901360
392.898	1.903503
393.257	1.904191
393.616	1.906264
393.975	1.906710
394.334	1.907250
394.693	1.906588
395.051	1.906478
395.410	1.905226
395.769	1.906770
396.128	1.908195
396.487	1.907240
396.845	1.907751
397.204	1.906533
397.563	1.905690
397.921	1.905005
398.280	1.901726
398.638	1.899388
398.997	1.898858
399.355	1.897446
399.714	1.898271
400.072	1.895720
400.431	1.891280
400.789	1.889999
401.147	1.888731
401.506	1.886869
401.864	1.885989
402.222	1.884670
402.580	1.880921
402.938	1.880578
403.297	1.877207
403.655	1.874611
404.013	1.873173
404.371	1.870551
404.729	1.868234
405.087	1.866376
405.444	1.864885
405.802	1.864463
406.160	1.864319
406.518	1.862328
406.876	1.860382
407.233	1.858472
407.591	1.858275
407.949	1.858237
408.306	1.857215
408.664	1.854807
409.022	1.854047
409.379	1.852849
409.737	1.850161
410.094	1.849520
410.451	1.847751
410.809	1.846271
411.166	1.843463
411.523	1.843480
411.881	1.842571
412.238	1.840683
412.595	1.838409
412.952	1.836743
413.310	1.834088
413.667	1.832582
414.024	1.831641
414.381	1.829960
414.738	1.826383
415.095	1.824124
415.452	1.821290
415.809	1.817581
416.165	1.815171
416.522	1.811470
416.879	1.807698
417.236	1.804736
417.593	1.801576
417.949	1.797581
418.306	1.794699
418.663	1.794879
419.019	1.789869
419.376	1.786603
419.732	1.783338
420.089	1.781865
420.445	1.779315
420.802	1.777521
421.158	1.773377
421.514	1.770423
421.871	1.767329
422.227	1.763860
422.583	1.760798
422.939	1.756499
423.295	1.753242
423.652	1.749137
424.008	1.745942
424.364	1.742113
424.720	1.739264
425.076	1.736250
425.432	1.732563
425.788	1.729681
426.143	1.723503
426.499	1.719931
426.855	1.716163
427.211	1.712528
427.567	1.708320
427.922	1.704205
428.278	1.697866
428.634	1.694404
428.989	1.689435
429.345	1.685592
429.700	1.682623
430.056	1.678632
430.411	1.676032
430.767	1.672359
431.122	1.667845
431.478	1.663832
431.833	1.659278
432.188	1.654197
432.543	1.649677
432.899	1.644328
433.254	1.637663
433.609	1.633007
433.964	1.628525
434.319	1.622927
434.674	1.617111
435.029	1.611901
435.384	1.606540
435.739	1.602596
436.094	1.597896
436.449	1.593973
436.804	1.589177
437.158	1.583729
437.513	1.578753
437.868	1.572542
438.223	1.567465
438.577	1.562746
438.932	1.557792
439.287	1.553099
439.641	1.548396
439.996	1.543197
440.350	1.538867
440.704	1.534801
441.059	1.530425
441.413	1.524669
441.768	1.519227
442.122	1.514832
442.476	1.509248
442.830	1.504100
443.185	1.499543
443.539	1.494340
443.893	1.488988
444.247	1.483294
444.601	1.478136
444.955	1.472956
445.309	1.467770
445.663	1.461992
446.017	1.456665
446.371	1.450481
446.724	1.444547
447.078	1.438708
447.432	1.432855
447.786	1.427032
448.139	1.421037
448.493	1.415132
448.847	1.409446
449.200	1.403932
449.554	1.398253
449.907	1.392991
450.261	1.387129
450.614	1.381215
450.968	1.375392
451.321	1.369406
451.674	1.363914
452.027	1.358298
452.381	1.351991
452.734	1.346318
453.087	1.340704
453.440	1.334492
453.793	1.329238
454.146	1.323774
454.499	1.318554
454.852	1.312985
455.205	1.307455
455.558	1.302425
455.911	1.296943
456.264	1.291704
456.617	1.286659
456.970	1.281894
457.322	1.276900
457.675	1.272360
458.028	1.267838
458.380	1.263489
458.733	1.258895
459.086	1.254405
459.438	1.249660
459.791	1.245021
460.143	1.240400
460.496	1.235803
460.848	1.231303
461.200	1.226689
461.553	1.221928
461.905	1.217517
462.257	1.212878
462.609	1.208646
462.961	1.204212
463.314	1.199893
463.666	1.195669
464.018	1.191524
464.370	1.187258
464.722	1.183081
465.074	1.178977
465.426	1.175163
465.777	1.171383
466.129	1.167972
466.481	1.164390
466.833	1.161024
467.184	1.157834
467.536	1.153825
467.888	1.150066
468.239	1.146163
468.591	1.141996
468.943	1.137806
469.294	1.133150
469.646	1.128844
469.997	1.124155
470.348	1.120014
470.700	1.115686
471.051	1.112018
471.402	1.108106
471.754	1.104472
472.105	1.100881
472.456	1.097340
472.807	1.093665
473.158	1.090175
473.509	1.086907
473.860	1.083597
474.211	1.080400
474.562	1.077221
474.913	1.074371
475.264	1.071322
475.615	1.068391
475.966	1.065484
476.316	1.062428
476.667	1.059575
477.018	1.056764
477.368	1.053857
477.719	1.050763
478.070	1.047951
478.420	1.044917
478.771	1.041825
479.121	1.038803
479.472	1.035925
479.822	1.032891
480.172	1.029919
480.523	1.026860
480.873	1.023486
481.223	1.019561
481.573	1.015641
481.924	1.011750
482.274	1.008040
482.624	1.004719
482.974	1.001885
483.324	0.999433
483.674	0.997359
484.024	0.995468
484.374	0.993594
484.724	0.991727
485.073	0.989709
485.423	0.987832
485.773	0.985888
486.123	0.984104
486.472	0.982060
486.822	0.980155
487.172	0.978314
487.521	0.976423
487.871	0.974552
488.220	0.972618
488.570	0.970636
488.919	0.968184
489.268	0.965270
489.618	0.962121
489.967	0.958405
490.316	0.954228
490.666	0.949778
491.015	0.945588
491.364	0.941408
491.713	0.937597
492.062	0.934243
492.411	0.931243
492.760	0.928125
493.109	0.925063
493.458	0.922021
493.807	0.919264
494.156	0.916317
494.505	0.913413
494.853	0.910448
495.202	0.907361
495.551	0.904239
495.900	0.901236
496.248	0.898127
496.597	0.895206
496.945	0.892243
497.294	0.889358
497.642	0.886294
497.991	0.883173
498.339	0.880118
498.688	0.877297
499.036	0.874608
499.384	0.871815
499.732	0.869000
500.081	0.866210
500.429	0.863322
500.777	0.860537
501.125	0.857788
501.473	0.855004
501.821	0.852142
502.169	0.849482
502.517	0.846891
502.865	0.844291
503.213	0.841655
503.561	0.839201
503.908	0.836651
504.256	0.834106
504.604	0.831542
504.952	0.828980
505.299	0.826569
505.647	0.824123
505.994	0.821601
506.342	0.818979
506.689	0.816435
507.037	0.813848
507.384	0.811263
507.732	0.808845
508.079	0.806263
508.426	0.803812
508.774	0.801386
509.121	0.799201
509.468	0.796899
509.815	0.794572
510.162	0.792240
510.509	0.789914
510.856	0.787604
511.203	0.785382
511.550	0.783045
511.897	0.780740
512.244	0.778594
512.591	0.776188
512.938	0.773829
513.284	0.771440
513.631	0.769069
513.978	0.766837
514.324	0.764584
514.671	0.762372
515.018	0.760038
515.364	0.757838
515.711	0.755638
516.057	0.753349
516.403	0.751011
516.750	0.748698
517.096	0.746471
517.443	0.744267
517.789	0.742177
518.135	0.740000
518.481	0.737734
518.827	0.735646
519.173	0.733510
519.519	0.731255
519.865	0.729108
520.211	0.727016
520.557	0.724996
520.903	0.722919
521.249	0.720711
521.595	0.718604
521.941	0.716301
522.287	0.714065
522.632	0.711773
522.978	0.709354
523.324	0.707134
523.669	0.704824
524.015	0.702468
524.360	0.700048
524.706	0.697774
525.051	0.695359
525.397	0.692924
525.742	0.690717
526.087	0.688447
526.433	0.686198
526.778	0.684053
527.123	0.681951
527.468	0.679720
527.813	0.677516
528.158	0.675313
528.504	0.672971
528.849	0.670576
529.193	0.668324
529.538	0.665910
529.883	0.663410
530.228	0.660908
530.573	0.658491
530.918	0.656068
531.263	0.653680
531.607	0.651405
531.952	0.649075
532.296	0.646811
532.641	0.644576
532.986	0.642174
533.330	0.639750
533.675	0.637469
534.019	0.634993
534.363	0.632614
534.708	0.630137
535.052	0.627620
535.396	0.625156
535.741	0.622885
536.085	0.620417
536.429	0.617904
536.773	0.615479
537.117	0.613042
537.461	0.610467
537.805	0.607711
538.149	0.604967
538.493	0.602233
538.837	0.599439
539.181	0.596579
539.524	0.593704
539.868	0.590949
540.212	0.588146
540.556	0.585409
540.899	0.582598
541.243	0.579893
541.586	0.577049
541.930	0.574294
542.273	0.571562
542.617	0.568802
542.960	0.565789
543.304	0.562809
543.647	0.559770
543.990	0.556664
544.333	0.553507
544.677	0.550478
545.020	0.547534
545.363	0.544493
545.706	0.541514
546.049	0.538594
546.392	0.535663
546.735	0.532710
547.078	0.529606
547.421	0.526492
547.764	0.523320
548.106	0.520067
548.449	0.516705
548.792	0.513388
549.135	0.509967
549.477	0.506636
549.820	0.503406
550.162	0.500271
550.505	0.497059
550.847	0.493803
551.190	0.490398
551.532	0.486953
551.875	0.483350
552.217	0.479613
552.559	0.476065
552.901	0.472532
553.244	0.469042
553.586	0.465654
553.928	0.462360
554.270	0.459226
554.612	0.456130
554.954	0.452966
555.296	0.449760
555.638	0.446535
555.980	0.443051
556.322	0.439508
556.663	0.435763
557.005	0.431896
557.347	0.428172
557.689	0.424539
558.030	0.420980
558.372	0.417492
558.713	0.414039
559.055	0.410579
559.396	0.407122
559.738	0.403548
560.079	0.399930
560.421	0.396362
560.762	0.392853
561.103	0.389393
561.444	0.385984
561.786	0.382617
562.127	0.379326
562.468	0.375999
562.809	0.372578
563.150	0.369139
563.491	0.365580
563.832	0.361920
564.173	0.358220
564.514	0.354345
564.855	0.350354
565.195	0.346264
565.536	0.342209
565.877	0.338197
566.218	0.334275
566.558	0.330512
566.899	0.326936
567.239	0.323561
567.580	0.320450
567.920	0.317539
568.261	0.314883
568.601	0.312369
568.941	0.309957
569.282	0.307658
569.622	0.305384
569.962	0.303134
570.302	0.300927
570.643	0.298812
570.983	0.296797
571.323	0.294879
571.663	0.292983
572.003	0.291146
572.343	0.289292
572.683	0.287322
573.022	0.285260
573.362	0.283124
573.702	0.280954
574.042	0.278829
574.381	0.276752
574.721	0.274729
575.061	0.272804
575.400	0.270993
575.740	0.269212
576.079	0.267467
576.419	0.265625
576.758	0.263682
577.097	0.261675
577.437	0.259601
577.776	0.257451
578.115	0.255340
578.454	0.253305
578.794	0.251539
579.133	0.249939
579.472	0.248520
579.811	0.247200
580.150	0.245900
580.489	0.244543
580.828	0.243092
581.167	0.241562
581.505	0.240052
581.844	0.238510
582.183	0.236960
582.522	0.235433
582.860	0.233957
583.199	0.232534
583.538	0.231210
583.876	0.229935
584.215	0.228668
584.553	0.227379
584.891	0.226152
585.230	0.224875
585.568	0.223570
585.906	0.222140
586.245	0.220711
586.583	0.219284
586.921	0.217991
587.259	0.216832
587.597	0.215761
587.935	0.214650
588.273	0.213450
588.611	0.212069
588.949	0.210631
589.287	0.209131
589.625	0.207615
589.963	0.206156
590.300	0.204779
590.638	0.203494
590.976	0.202243
591.313	0.200954
591.651	0.199694
591.989	0.198414
592.326	0.197195
592.664	0.196098
593.001	0.195028
593.338	0.194044
593.676	0.193154
594.013	0.192263
594.350	0.191380
594.687	0.190531
595.025	0.189752
595.362	0.188981
595.699	0.188149
596.036	0.187327
596.373	0.186503
596.710	0.185641
597.047	0.184729
597.384	0.183824
597.720	0.182865
598.057	0.181948
598.394	0.181045
598.731	0.180141
599.067	0.179228
599.404	0.178315
599.741	0.177387
600.077	0.176531
600.414	0.175734
600.750	0.174996
601.087	0.174333
601.423	0.173639
601.759	0.172934
602.096	0.172206
602.432	0.171500
602.768	0.170808
603.104	0.170097
603.440	0.169358
603.776	0.168667
604.112	0.168003
604.448	0.167368
604.784	0.166773
605.120	0.166155
605.456	0.165575
605.792	0.164976
606.128	0.164408
606.463	0.163856
606.799	0.163233
607.135	0.162579
607.470	0.162007
607.806	0.161379
608.142	0.160756
608.477	0.160179
608.812	0.159591
609.148	0.159053
609.483	0.158467
609.819	0.157873
610.154	0.157228
610.489	0.156653
610.824	0.156048
611.159	0.155473
611.494	0.154852
611.830	0.154284
612.165	0.153816
612.500	0.153340
612.834	0.152905
613.169	0.152445
613.504	0.151919
613.839	0.151451
614.174	0.151005
614.509	0.150453
614.843	0.149950
615.178	0.149460
615.512	0.149001
615.847	0.148564
616.182	0.148141
616.516	0.147740
616.850	0.147361
617.185	0.146971
617.519	0.146537
617.853	0.146145
618.188	0.145642
618.522	0.145115
618.856	0.144538
619.190	0.143922
619.524	0.143358
619.858	0.142763
620.192	0.142253
620.526	0.141810
620.860	0.141391
621.194	0.140936
621.528	0.140503
621.862	0.140111
622.195	0.139761
622.529	0.139268
622.863	0.138789
623.196	0.138291
623.530	0.137889
623.864	0.137444
624.197	0.137082
624.530	0.136661
624.864	0.136243
625.197	0.135893
625.531	0.135560
625.864	0.135216
626.197	0.134846
626.530	0.134452
626.863	0.134047
627.196	0.133583
627.529	0.133151
627.862	0.132687
628.195	0.132214
628.528	0.131723
628.861	0.131189
629.194	0.130636
629.527	0.130189
629.860	0.129782
630.192	0.129310
630.525	0.128764
630.858	0.128306
631.190	0.127815
631.523	0.127276
631.855	0.126640
632.188	0.126101
632.520	0.125595
632.852	0.125100
633.185	0.124579
633.517	0.124109
633.849	0.123700
634.182	0.123335
634.514	0.123010
634.846	0.122679
635.178	0.122418
635.510	0.122105
635.842	0.121821
636.174	0.121512
636.506	0.121253
636.837	0.120978
637.169	0.120709
637.501	0.120413
637.833	0.120169
638.164	0.119854
638.496	0.119596
638.828	0.119325
639.159	0.118937
639.491	0.118512
639.822	0.118054
640.154	0.117609
640.485	0.117084
640.816	0.116594
641.147	0.116044
641.479	0.115455
641.810	0.114872
642.141	0.114339
642.472	0.113876
642.803	0.113356
643.134	0.112834
643.465	0.112315
643.796	0.111836
644.127	0.111403
644.458	0.111047
644.789	0.110715
645.119	0.110459
645.450	0.110330
645.781	0.110415
646.111	0.110522
646.442	0.110611
646.773	0.110681
647.103	0.110660
647.433	0.110585
647.764	0.110430
648.094	0.110301
648.425	0.110222
648.755	0.110193
649.085	0.110089
649.415	0.109964
649.745	0.109991
650.075	0.109970
650.405	0.109883
650.735	0.108343
651.065	0.099040
651.395	0.090944
651.725	0.078868
652.055	0.053874
652.385	0.039631
652.715	0.030405
653.044	0.023962
653.374	0.019222
653.704	0.015605
654.033	0.020744
654.363	0.026000
654.692	0.029007
655.022	0.030780
655.351	0.031843
655.680	0.032461
656.010	0.032794
656.339	0.032934
656.668	0.032958
656.997	0.032920
657.326	0.032845
657.655	0.032772
657.984	0.032425
658.313	0.029972
658.642	0.027228
658.971	0.031706
659.300	0.037413
659.629	0.044941
659.958	0.055329
660.286	0.070588
660.615	0.095197
660.944	0.104803
661.272	0.103126
661.601	0.102194
661.929	0.101669
662.258	0.101609
662.586	0.101646
662.915	0.101542
663.243	0.101312
663.571	0.100861
663.899	0.100476
664.228	0.100102
664.556	0.099751
664.884	0.099456
665.212	0.099272
665.540	0.099071
665.868	0.098935
666.196	0.098833
666.524	0.098759
666.852	0.098607
667.179	0.098405
667.507	0.098264
667.835	0.098132
668.162	0.097987
668.490	0.097873
668.818	0.097845
669.145	0.097800
669.473	0.097881
669.800	0.097893
670.127	0.097927
670.455	0.098025
670.782	0.098152
671.109	0.098161
671.436	0.098243
671.764	0.098276
672.091	0.098199
672.418	0.098251
672.745	0.098195
673.072	0.098210
673.399	0.098123
673.726	0.098023
674.053	0.097959
674.379	0.097902
674.706	0.097790
675.033	0.097586
675.359	0.097432
675.686	0.097293
676.013	0.097176
676.339	0.096973
676.666	0.096751
676.992	0.096621
677.318	0.096587
677.645	0.096373
677.971	0.096246
678.297	0.096152
678.624	0.096114
678.950	0.095998
679.276	0.095905
679.602	0.095747
679.928	0.095481
680.254	0.095296
680.580	0.095092
680.906	0.094898
681.232	0.094737
681.558	0.094710
681.883	0.094716
682.209	0.094799
682.535	0.094792
682.860	0.094775
683.186	0.094745
683.511	0.094676
683.837	0.094443
684.162	0.094261
684.488	0.094134
684.813	0.094023
685.138	0.093881
685.464	0.093741
685.789	0.093674
686.114	0.093504
686.439	0.093421
686.764	0.093363
687.089	0.093305
687.414	0.093295
687.739	0.093283
688.064	0.093192
688.389	0.093069
688.714	0.092926
689.039	0.092642
689.363	0.092413
689.688	0.092200
690.013	0.091913
690.337	0.091771
690.662	0.091721
690.986	0.091640
691.311	0.091562
691.635	0.091469
691.959	0.091324
692.284	0.091056
692.608	0.090796
692.932	0.090598
693.256	0.090492
693.580	0.090434
693.904	0.090342
694.228	0.090224
694.552	0.090219
694.876	0.090213
695.200	0.090137
695.524	0.090018
695.848	0.089879
696.172	0.089704
696.495	0.089380
696.819	0.089194
697.143	0.088856
697.466	0.088576
697.790	0.088196
698.113	0.087868
698.437	0.087511
698.760	0.087185
699.083	0.087098
699.407	0.086983
699.730	0.086888
700.053	0.086788
700.376	0.086531
700.699	0.086223
701.022	0.085946
701.345	0.085417
701.668	0.084761
701.991	0.084135
702.314	0.083439
702.637	0.082760
702.960	0.082085
703.283	0.081665
703.605	0.081202
703.928	0.080934
704.251	0.080704
704.573	0.080567
704.896	0.080469
705.218	0.080418
705.540	0.080243
705.863	0.079846
706.185	0.079429
706.507	0.078944
706.830	0.078382
707.152	0.077811
707.474	0.077310
707.796	0.076797
708.118	0.076346
708.440	0.076051
708.762	0.075821
709.084	0.075624
709.406	0.075352
709.728	0.075199
710.049	0.074950
710.371	0.074738
710.693	0.074403
711.014	0.073991
711.336	0.073626
711.658	0.073241
711.979	0.072879
712.301	0.072575
712.622	0.072452
712.943	0.072272
713.265	0.072087
713.586	0.071867
713.907	0.071794
714.228	0.071730
714.549	0.071645
714.870	0.071627
715.191	0.071554
715.512	0.071454
715.833	0.071383
716.154	0.071288
716.475	0.071146
716.796	0.070934
717.117	0.070619
717.437	0.070275
717.758	0.069917
718.078	0.069459
718.399	0.069058
718.719	0.068638
719.040	0.068266
719.360	0.067913
719.681	0.067602
720.001	0.067360
720.321	0.067212
720.642	0.066982
720.962	0.066664
721.282	0.066509
721.602	0.066254
721.922	0.066067
722.242	0.065758
722.562	0.065539
722.882	0.065343
723.202	0.065169
723.521	0.065014
723.841	0.064922
724.161	0.064813
724.481	0.064638
724.800	0.064533
725.120	0.064370
725.439	0.064270
725.759	0.064093
726.078	0.063914
726.398	0.063761
726.717	0.063618
727.036	0.063545
727.355	0.063572
727.675	0.063641
727.994	0.063656
728.313	0.063736
728.632	0.063740
728.951	0.063758
729.270	0.063658
729.589	0.063480
729.908	0.063233
730.226	0.062937
730.545	0.062676
730.864	0.062381
731.182	0.062208
731.501	0.061977
731.820	0.061813
732.138	0.061654
732.457	0.061528
732.775	0.061344
733.093	0.061215
733.412	0.061084
733.730	0.060879
734.048	0.060624
734.367	0.060323
734.685	0.059952
735.003	0.059544
735.321	0.059145
735.639	0.058720
735.957	0.058413
736.275	0.058206
736.593	0.058102
736.910	0.057986
737.228	0.057810
737.546	0.057709
737.863	0.057584
738.181	0.057371
738.499	0.057095
738.816	0.056784
739.134	0.056516
739.451	0.056283
739.768	0.056026
740.086	0.055732
740.403	0.055436
740.720	0.055150
741.038	0.054849
741.355	0.054533
741.672	0.054192
741.989	0.053853
742.306	0.053572
742.623	0.053131
742.940	0.052631
743.257	0.051947
743.573	0.051386
743.890	0.050866
744.207	0.050223
744.523	0.049713
744.840	0.049259
745.157	0.048878
745.473	0.048438
745.790	0.048026
746.106	0.047640
746.422	0.047279
746.739	0.046944
747.055	0.046725
747.371	0.046502
747.687	0.046359
748.004	0.046356
748.320	0.046368
748.636	0.046343
748.952	0.046197
749.268	0.046199
749.584	0.046216
749.899	0.046235
750.215	0.046208
750.531	0.046118
750.847	0.046141
751.162	0.046169
751.478	0.046190
751.793	0.046088
752.109	0.045996
752.424	0.045925
752.740	0.045882
753.055	0.045823
753.370	0.045813
753.686	0.045856
754.001	0.045998
754.316	0.046159
754.631	0.046303
754.946	0.046366
755.261	0.046482
755.576	0.046588
755.891	0.046558
756.206	0.046436
756.521	0.046301
756.836	0.046231
757.150	0.046243
757.465	0.046239
757.780	0.046172
758.094	0.046183
758.409	0.046216
758.723	0.046281
759.038	0.046249
759.352	0.046247
759.667	0.046212
759.981	0.046140
760.295	0.045922
760.609	0.045676
760.923	0.045428
761.238	0.045120
761.552	0.044853
761.866	0.044630
762.180	0.044505
762.493	0.044456
762.807	0.044431
763.121	0.044344
763.435	0.044214
763.749	0.044025
764.062	0.043800
764.376	0.043518
764.689	0.043246
765.003	0.042989
765.316	0.042766
765.630	0.042760
765.943	0.042545
766.257	0.042462
766.570	0.042292
766.883	0.042138
767.196	0.041878
767.509	0.041576
767.822	0.041260
768.135	0.040988
768.448	0.040675
768.761	0.040303
769.074	0.039972
769.387	0.039684
769.700	0.039465
770.013	0.039243
770.325	0.039034
770.638	0.038951
770.950	0.038845
771.263	0.038720
771.575	0.038581
771.888	0.038310
772.200	0.037908
772.513	0.037625
772.825	0.037235
773.137	0.036924
773.449	0.036678
773.761	0.036383
774.074	0.036167
774.386	0.036032
774.698	0.035773
775.010	0.035411
775.321	0.035103
775.633	0.034758
775.945	0.034568
776.257	0.034449
776.568	0.034319
776.880	0.034215
777.192	0.034010
777.503	0.033935
777.815	0.033947
778.126	0.033888
778.438	0.034089
778.749	0.034265
779.060	0.034463
779.372	0.034597
779.683	0.034761
779.994	0.034835
780.305	0.034932
780.616	0.035068
780.927	0.035104
781.238	0.035124
781.549	0.035167
781.860	0.035292
782.171	0.035374
782.481	0.035414
782.792	0.035423
783.103	0.035521
783.413	0.035564
783.724	0.035586
784.034	0.035576
784.345	0.035412
784.655	0.035393
784.966	0.035166
785.276	0.035096
785.586	0.034928
785.896	0.034828
786.207	0.034707
786.517	0.034688
786.827	0.034825
787.137	0.034804
787.447	0.034754
787.757	0.034885
788.066	0.034996
788.376	0.035011
788.686	0.035046
788.996	0.035071
789.305	0.035044
789.615	0.034976
789.925	0.034888
790.234	0.034897
790.544	0.034973
790.853	0.035021
791.162	0.035074
791.472	0.035349
791.781	0.035486
792.090	0.035649
792.399	0.035639
792.708	0.035592
793.017	0.035548
793.326	0.035341
793.635	0.035230
793.944	0.035068
794.253	0.034814
794.562	0.034623
794.871	0.034483
795.179	0.034346
795.488	0.034172
795.797	0.034087
796.105	0.034007
796.414	0.034105
796.722	0.034095
797.031	0.033980
797.339	0.033922
797.647	0.033701
797.956	0.033282
798.264	0.032736
798.572	0.032428
798.880	0.032105
799.188	0.031783
799.496	0.031517
799.804	0.031409
800.112	0.031171
800.420	0.031112
800.728	0.031109
801.035	0.031058
801.343	0.030843
801.651	0.030481
801.958	0.030263
802.266	0.030223
802.573	0.030251
802.881	0.030216
803.188	0.030173
803.496	0.030402
803.803	0.030553
804.110	0.030787
804.417	0.030868
804.724	0.030998
805.032	0.030941
805.339	0.031000
805.646	0.031032
805.953	0.031079
806.259	0.030949
806.566	0.030806
806.873	0.030877
807.180	0.030779
807.486	0.030846
807.793	0.030970
808.100	0.031220
808.406	0.031360
808.713	0.031415
809.019	0.031161
809.326	0.030933
809.632	0.030702
809.938	0.030105
810.244	0.029658
810.551	0.029226
810.857	0.028896
811.163	0.028708
811.469	0.028446
811.775	0.028339
812.081	0.028273
812.387	0.028132
812.692	0.028208
812.998	0.028444
813.304	0.028365
813.610	0.028647
813.915	0.028670
814.221	0.028491
814.526	0.028511
814.832	0.028584
815.137	0.028361
815.443	0.028456
815.748	0.028485
816.053	0.028466
816.358	0.028347
816.664	0.028358
816.969	0.028381
817.274	0.028597
817.579	0.028722
817.884	0.028745
818.189	0.028674
818.493	0.028707
818.798	0.028663
819.103	0.028459
819.408	0.028170
819.712	0.028006
820.017	0.027696
820.321	0.027462
820.626	0.027605
820.930	0.027151
821.235	0.026896
821.539	0.026805
821.843	0.026513
822.148	0.026441
822.452	0.026628
822.756	0.027022
823.060	0.026864
823.364	0.027121
823.668	0.027138
823.972	0.026922
824.276	0.026936
824.580	0.026912
824.883	0.027111
825.187	0.027323
825.491	0.027509
825.795	0.027648
826.098	0.027834
826.402	0.027885
826.705	0.027968
827.008	0.027742
827.312	0.027845
827.615	0.027632
827.918	0.027515
828.222	0.027523
828.525	0.027265
828.828	0.027069
829.131	0.027026
829.434	0.027076
829.737	0.026326
830.040	0.025650
830.343	0.025495
830.645	0.025460
830.948	0.025160
831.251	0.024808
831.553	0.024290
831.856	0.024105
832.159	0.024239
832.461	0.023998
832.764	0.023582
833.066	0.023487
833.368	0.023244
833.671	0.022960
833.973	0.023011
834.275	0.022763
834.577	0.022685
834.879	0.022615
835.181	0.022253
835.483	0.021554
835.785	0.021372
836.087	0.021455
836.389	0.021528
836.690	0.020980
836.992	0.019880
837.294	0.019380
837.595	0.018233
837.897	0.017428
838.198	0.016641
838.500	0.015675
838.801	0.015125
839.103	0.014884
839.404	0.013891
839.705	0.013444
840.006	0.013476
840.307	0.013259
840.608	0.013170
840.910	0.013104
841.210	0.013538
841.511	0.013650
841.812	0.014126
842.113	0.014205
842.414	0.013726
842.715	0.013367
843.015	0.012476
843.316	0.012787
843.616	0.012108
843.917	0.012075
844.217	0.012159
844.518	0.011936
844.818	0.011921
845.118	0.012076
845.419	0.012258
845.719	0.012680
846.019	0.012454
846.319	0.012506
846.619	0.012138
846.919	0.012664
847.219	0.012621
847.519	0.011702
847.819	0.011583
848.118	0.010787
848.418	0.010147
848.718	0.009837
849.017	0.009129
849.317	0.009764
849.616	0.009494
849.916	0.009771
850.215	0.009941
850.515	0.010439
850.814	0.010665
851.113	0.011031
851.412	0.011220
851.712	0.011260
852.011	0.011234
852.310	0.011853
852.609	0.011917
852.908	0.012062
853.206	0.011952
853.505	0.012235
853.804	0.012399
854.103	0.012619
854.401	0.012866
854.700	0.012991
854.999	0.013009
855.297	0.013326
855.595	0.013241
855.894	0.013401
856.192	0.013620
856.491	0.013663
856.789	0.013346
857.087	0.013128
857.385	0.012659
857.683	0.012200
857.981	0.011959
858.279	0.011922
858.577	0.010887
858.875	0.010383
859.173	0.010003
859.471	0.009983
859.768	0.009394
860.066	0.009052
860.363	0.008133
860.661	0.007533
860.959	0.007486
861.256	0.007840
861.553	0.007627
861.851	0.006915
862.148	0.006370
862.445	0.005795
862.742	0.005642
863.039	0.005293
863.337	0.005267
863.634	0.004480
863.931	0.003976
864.227	0.003195
864.524	0.002534
864.821	0.002750
865.118	0.002393
865.415	0.002069
865.711	0.001453
866.008	0.000749
866.304	0.000765
866.601	0.000923
866.897	0.000647
867.194	0.000653
867.490	0.000558
867.786	-0.000267
868.082	0.000004
868.379	-0.000658
868.675	-0.000678
868.971	-0.000761
869.267	-0.000945
869.563	-0.000394
869.859	-0.000557
870.154	-0.000654
870.450	-0.000225
870.746	-0.000417
871.042	-0.000534
871.337	-0.000249
871.633	-0.000839
871.928	-0.000618
872.224	-0.001125
872.519	-0.002011
872.815	-0.002323
873.110	-0.002330
873.405	-0.003166
873.700	-0.003484
873.995	-0.003844
874.291	-0.003827
874.586	-0.003156
874.881	-0.003447
875.175	-0.004041
875.470	-0.004039
875.765	-0.005052
876.060	-0.004341
876.355	-0.004054
876.649	-0.004179
876.944	-0.003794
877.238	-0.003874
877.533	-0.004119
877.827	-0.003427
878.122	-0.003450
878.416	-0.002874
878.710	-0.001803
879.005	-0.001791
879.299	-0.002186
879.593	-0.002209
879.887	-0.002689
880.181	-0.002533
880.475	-0.002113
880.769	-0.002555
881.063	-0.002579
881.356	-0.002601
881.650	-0.002440
881.944	-0.002469
882.238	-0.013425
882.531	-0.003121
882.825	-0.010826
883.118	-0.014080
883.412	0.002461
883.705	-0.015225
883.998	-0.006786
884.291	-0.008420
884.585	-0.000636
884.878	-0.009698
>>>>>>>>>> END of Data <<<<<<<<<<
>>>>>>>>>> Raw Data Start <<<<<<<<
190.664	-407
191.040	4
191.415	4
191.791	4
192.166	8
192.542	6
192.917	9
193.293	9
193.668	8
194.044	7
194.419	-11
194.794	9
195.170	9
195.545	9
195.920	10
196.296	10
196.671	11
197.046	11
197.421	12
197.796	12
198.171	12
198.546	12
198.922	13
199.297	13
199.672	13
200.047	14
200.422	14
200.796	14
201.171	14
201.546	14
201.921	14
202.296	15
202.671	15
203.045	15
203.420	15
203.795	15
204.170	15
204.544	15
204.919	15
205.294	15
205.668	15
206.043	15
206.417	15
206.792	15
207.166	15
207.541	15
207.915	15
208.289	14
208.664	14
209.038	14
209.412	14
209.787	14
210.161	14
210.535	14
210.909	15
211.284	15
211.658	15
212.032	15
212.406	15
212.780	14
213.154	14
213.528	14
213.902	15
214.276	15
214.650	15
215.024	15
215.398	15
215.772	14
216.145	14
216.519	14
216.893	14
217.267	14
217.640	15
218.014	15
218.388	15
218.761	15
219.135	16
219.508	16
219.882	16
220.256	16
220.629	16
221.003	16
221.376	15
221.749	16
222.123	16
222.496	16
222.869	16
223.243	15
223.616	16
223.989	16
224.362	16
224.736	16
225.109	16
225.482	16
225.855	16
226.228	16
226.601	15
226.974	15
227.347	15
227.720	15
228.093	15
228.466	15
228.839	15
229.212	15
229.585	15
229.957	15
230.330	15
230.703	15
231.076	15
231.448	16
231.821	15
232.194	16
232.566	15
232.939	16
233.311	15
233.684	15
234.056	15
234.429	15
234.801	15
235.174	15
235.546	16
235.918	16
236.291	16
236.663	16
237.035	16
237.408	16
237.780	16
238.152	16
238.524	16
238.896	16
239.268	16
239.641	16
240.013	16
240.385	16
240.757	16
241.129	16
241.500	16
241.872	16
242.244	16
242.616	16
242.988	16
243.360	16
243.731	16
244.103	16
244.475	16
244.847	16
245.218	16
245.590	16
245.961	16
246.333	16
246.705	16
247.076	16
247.448	16
247.819	16
248.190	17
248.562	17
248.933	17
249.305	17
249.676	18
250.047	17
250.418	17
250.790	17
251.161	17
251.532	17
251.903	17
252.274	16
252.645	16
253.016	16
253.387	17
253.758	17
254.129	17
254.500	17
254.871	17
255.242	17
255.613	17
255.984	17
256.355	17
256.725	17
257.096	16
257.467	16
257.838	16
258.208	16
258.579	16
258.949	17
259.320	17
259.690	17
260.061	18
260.431	17
260.802	18
261.172	17
261.543	17
261.913	18
262.283	18
262.654	18
263.024	18
263.394	17
263.764	17
264.135	18
264.505	18
264.875	18
265.245	18
265.615	18
265.985	18
266.355	18
266.725	18
267.095	18
267.465	18
267.835	18
268.205	18
268.575	18
268.944	18
269.314	18
269.684	18
270.054	17
270.423	17
270.793	17
271.163	17
271.532	17
271.902	17
272.271	17
272.641	17
273.010	18
273.380	18
273.749	18
274.119	18
274.488	18
274.857	18
275.227	18
275.596	18
275.965	18
276.335	18
276.704	19
277.073	18
277.442	19
277.811	19
278.180	19
278.549	18
278.918	19
279.287	19
279.656	19
280.025	18
280.394	18
280.763	18
281.132	18
281.501	18
281.869	18
282.238	18
282.607	18
282.976	18
283.344	17
283.713	17
284.081	17
284.450	17
284.819	17
285.187	17
285.556	17
285.924	17
286.292	18
286.661	17
287.029	17
287.398	17
287.766	18
288.134	18
288.502	18
288.871	18
289.239	19
289.607	18
289.975	18
290.343	18
290.711	19
291.079	19
291.447	19
291.815	19
292.183	19
292.551	19
292.919	18
293.287	19
293.655	18
294.022	18
294.390	18
294.758	18
295.126	18
295.493	18
295.861	17
296.229	17
296.596	17
296.964	17
297.331	18
297.699	18
298.066	18
298.434	18
298.801	17
299.168	18
299.536	17
299.903	17
300.270	18
300.638	18
301.005	18
301.372	18
301.739	18
302.106	19
302.473	19
302.840	19
303.207	19
303.574	19
303.941	19
304.308	19
304.675	20
305.042	19
305.409	19
305.776	19
306.143	19
306.509	20
306.876	20
307.243	20
307.610	19
307.976	19
308.343	20
308.709	20
309.076	19
309.442	19
309.809	19
310.175	19
310.542	19
310.908	19
311.275	20
311.641	20
312.007	20
312.373	19
312.740	20
313.106	20
313.472	19
313.838	19
314.204	19
314.570	20
314.936	20
315.302	20
315.668	21
316.034	20
316.400	20
316.766	20
317.132	20
317.498	20
317.864	20
318.230	20
318.595	20
318.961	20
319.327	20
319.692	20
320.058	20
320.424	21
320.789	20
321.155	21
321.520	21
321.886	21
322.251	21
322.616	21
322.982	21
323.347	22
323.712	22
324.078	23
324.443	24
324.808	24
325.173	25
325.539	25
325.904	25
326.269	26
326.634	26
326.999	26
327.364	27
327.729	27
328.094	27
328.459	28
328.823	28
329.188	28
329.553	29
329.918	29
330.283	29
330.647	29
331.012	29
331.377	30
331.741	30
332.106	30
332.470	31
332.835	31
333.199	31
333.564	32
333.928	32
334.293	32
334.657	33
335.021	33
335.386	33
335.750	34
336.114	35
336.478	35
336.843	36
337.207	36
337.571	37
337.935	37
338.299	37
338.663	38
339.027	39
339.391	39
339.755	40
340.119	40
340.483	41
340.846	41
341.210	42
341.574	43
341.938	44
342.301	44
342.665	44
343.029	45
343.392	45
343.756	45
344.119	46
344.483	46
344.846	47
345.210	47
345.573	48
345.937	48
346.300	48
346.663	49
347.027	49
347.390	50
347.753	50
348.116	50
348.479	50
348.843	51
349.206	51
349.569	52
349.932	52
350.295	53
350.658	53
351.021	53
351.383	54
351.746	54
352.109	54
352.472	55
352.835	55
353.197	55
353.560	55
353.923	56
354.285	56
354.648	56
355.011	57
355.373	57
355.736	57
356.098	58
356.461	58
356.823	58
357.185	58
357.548	58
357.910	58
358.272	59
358.635	60
358.997	60
359.359	60
359.721	60
360.083	60
360.445	60
360.807	61
361.169	61
361.531	61
361.893	61
362.255	61
362.617	62
362.979	62
363.341	62
363.703	63
364.064	63
364.426	63
364.788	63
365.149	63
365.511	63
365.873	63
366.234	63
366.596	63
366.957	63
367.319	63
367.680	63
368.042	63
368.403	63
368.764	63
369.126	63
369.487	63
369.848	63
370.209	63
370.570	63
370.931	63
371.293	63
371.654	63
372.015	62
372.376	62
372.737	62
373.098	63
373.458	62
373.819	62
374.180	62
374.541	62
374.902	62
375.263	62
375.623	63
375.984	63
376.345	63
376.705	63
377.066	63
377.426	63
377.787	63
378.147	64
378.508	64
378.868	64
379.228	65
379.589	65
379.949	65
380.309	65
380.670	65
381.030	66
381.390	66
381.750	66
382.110	67
382.470	67
382.830	67
383.190	67
383.550	67
383.910	67
384.270	67
384.630	68
384.990	68
385.350	68
385.709	68
386.069	68
386.429	68
386.788	68
387.148	68
387.508	68
387.867	68
388.227	68
388.586	68
388.946	69
389.305	69
389.665	69
390.024	70
390.383	70
390.743	70
391.102	70
391.461	71
391.820	71
392.179	71
392.539	71
392.898	71
393.257	71
393.616	71
393.975	72
394.334	72
394.693	73
395.051	73
395.410	74
395.769	74
396.128	74
396.487	75
396.845	75
397.204	75
397.563	75
397.921	75
398.280	76
398.638	76
398.997	76
399.355	77
399.714	76
400.072	77
400.431	78
400.789	78
401.147	79
401.506	79
401.864	79
402.222	79
402.580	80
402.938	80
403.297	80
403.655	81
404.013	81
404.371	81
404.729	81
405.087	82
405.444	82
405.802	82
406.160	82
406.518	83
406.876	83
407.233	83
407.591	83
407.949	83
408.306	83
408.664	84
409.022	84
409.379	84
409.737	85
410.094	85
410.451	85
410.809	86
411.166	86
411.523	86
411.881	87
412.238	87
412.595	88
412.952	88
413.310	89
413.667	89
414.024	89
414.381	89
414.738	90
415.095	91
415.452	91
415.809	92
416.165	93
416.522	94
416.879	95
417.236	96
417.593	97
417.949	98
418.306	99
418.663	100
419.019	102
419.376	104
419.732	106
420.089	107
420.445	108
420.802	109
421.158	111
421.514	112
421.871	113
422.227	115
422.583	116
422.939	117
423.295	118
423.652	120
424.008	121
424.364	122
424.720	122
425.076	123
425.432	124
425.788	125
426.143	126
426.499	128
426.855	129
427.211	130
427.567	132
427.922	133
428.278	135
428.634	136
428.989	137
429.345	138
429.700	139
430.056	141
430.411	142
430.767	144
431.122	145
431.478	147
431.833	149
432.188	151
432.543	152
432.899	154
433.254	156
433.609	157
433.964	158
434.319	159
434.674	161
435.029	162
435.384	164
435.739	165
436.094	167
436.449	169
436.804	172
437.158	175
437.513	178
437.868	182
438.223	185
438.577	188
438.932	192
439.287	196
439.641	200
439.996	204
440.350	207
440.704	211
441.059	215
441.413	219
441.768	224
442.122	227
442.476	232
442.830	236
443.185	240
443.539	244
443.893	248
444.247	252
444.601	256
444.955	259
445.309	261
445.663	264
446.017	267
446.371	269
446.724	272
447.078	274
447.432	276
447.786	279
448.139	281
448.493	283
448.847	284
449.200	286
449.554	287
449.907	289
450.261	291
450.614	292
450.968	294
451.321	296
451.674	298
452.027	299
452.381	302
452.734	305
453.087	307
453.440	310
453.793	312
454.146	315
454.499	319
454.852	323
455.205	328
455.558	333
455.911	338
456.264	342
456.617	347
456.970	352
457.322	356
457.675	360
458.028	364
458.380	368
458.733	371
459.086	375
459.438	379
459.791	383
460.143	388
460.496	394
460.848	400
461.200	407
461.553	414
461.905	420
462.257	426
462.609	432
462.961	437
463.314	442
463.666	447
464.018	451
464.370	456
464.722	461
465.074	466
465.426	470
465.777	474
466.129	477
466.481	480
466.833	483
467.184	484
467.536	486
467.888	487
468.239	488
468.591	489
468.943	490
469.294	492
469.646	495
469.997	499
470.348	503
470.700	508
471.051	515
471.402	522
471.754	530
472.105	539
472.456	548
472.807	559
473.158	570
473.509	582
473.860	595
474.211	608
474.562	622
474.913	635
475.264	650
475.615	665
475.966	680
476.316	694
476.667	709
477.018	724
477.368	739
477.719	755
478.070	770
478.420	784
478.771	799
479.121	813
479.472	827
479.822	842
480.172	858
480.523	877
480.873	902
481.223	942
481.573	1001
481.924	1075
482.274	1158
482.624	1245
482.974	1333
483.324	1410
483.674	1468
484.024	1509
484.374	1537
484.724	1556
485.073	1570
485.423	1583
485.773	1595
486.123	1606
486.472	1617
486.822	1628
487.172	1637
487.521	1645
487.871	1650
488.220	1648
488.570	1629
488.919	1593
489.268	1541
489.618	1480
489.967	1415
490.316	1349
490.666	1292
491.015	1251
491.364	1229
491.713	1220
492.062	1219
492.411	1223
492.760	1230
493.109	1237
493.458	1244
493.807	1250
494.156	1256
494.505	1262
494.853	1269
495.202	1277
495.551	1287
495.900	1296
496.248	1307
496.597	1317
496.945	1328
497.294	1337
497.642	1348
497.991	1361
498.339	1374
498.688	1388
499.036	1402
499.384	1414
499.732	1426
500.081	1436
500.429	1446
500.777	1455
501.125	1464
501.473	1472
501.821	1482
502.169	1491
502.517	1499
502.865	1505
503.213	1510
503.561	1514
503.908	1518
504.256	1521
504.604	1523
504.952	1525
505.299	1525
505.647	1524
505.994	1523
506.342	1521
506.689	1519
507.037	1518
507.384	1518
507.732	1519
508.079	1520
508.426	1521
508.774	1523
509.121	1522
509.468	1523
509.815	1522
510.162	1522
510.509	1523
510.856	1522
511.203	1521
511.550	1520
511.897	1520
512.244	1519
512.591	1519
512.938	1519
513.284	1519
513.631	1519
513.978	1517
514.324	1516
514.671	1514
515.018	1512
515.364	1510
515.711	1509
516.057	1507
516.403	1506
516.750	1505
517.096	1503
517.443	1499
517.789	1496
518.135	1493
518.481	1491
518.827	1489
519.173	1486
519.519	1485
519.865	1483
520.211	1482
520.557	1480
520.903	1480
521.249	1480
521.595	1480
521.941	1480
522.287	1480
522.632	1480
522.978	1481
523.324	1482
523.669	1485
524.015	1488
524.360	1494
524.706	1501
525.051	1510
525.397	1521
525.742	1531
526.087	1542
526.433	1554
526.778	1563
527.123	1571
527.468	1579
527.813	1586
528.158	1593
528.504	1602
528.849	1613
529.193	1627
529.538	1642
529.883	1662
530.228	1683
530.573	1707
530.918	1731
531.263	1756
531.607	1779
531.952	1800
532.296	1817
532.641	1832
532.986	1845
533.330	1858
533.675	1870
534.019	1887
534.363	1906
534.708	1929
535.052	1955
535.396	1983
535.741	2009
536.085	2033
536.429	2056
536.773	2075
537.117	2090
537.461	2105
537.805	2119
538.149	2133
538.493	2148
538.837	2165
539.181	2184
539.524	2208
539.868	2233
540.212	2263
540.556	2293
540.899	2325
541.243	2354
541.586	2379
541.930	2400
542.273	2416
542.617	2428
542.960	2443
543.304	2461
543.647	2482
543.990	2510
544.333	2540
544.677	2571
545.020	2601
545.363	2627
545.706	2648
546.049	2664
546.392	2675
546.735	2681
547.078	2687
547.421	2692
547.764	2699
548.106	2708
548.449	2720
548.792	2737
549.135	2759
549.477	2785
549.820	2812
550.162	2834
550.505	2853
550.847	2868
551.190	2879
551.532	2889
551.875	2898
552.217	2910
552.559	2924
552.901	2942
553.244	2964
553.586	2987
553.928	3012
554.270	3033
554.612	3051
554.954	3067
555.296	3080
555.638	3093
555.980	3107
556.322	3124
556.663	3147
557.005	3178
557.347	3216
557.689	3256
558.030	3296
558.372	3333
558.713	3366
559.055	3399
559.396	3430
559.738	3464
560.079	3500
560.421	3542
560.762	3589
561.103	3640
561.444	3697
561.786	3755
562.127	3818
562.468	3885
562.809	3959
563.150	4041
563.491	4129
563.832	4227
564.173	4337
564.514	4465
564.855	4617
565.195	4804
565.536	5028
565.877	5287
566.218	5582
566.558	5915
566.899	6279
567.239	6673
567.580	7085
567.920	7509
568.261	7937
568.601	8375
568.941	8829
569.282	9296
569.622	9781
569.962	10286
570.302	10824
570.643	11380
570.983	11941
571.323	12482
571.663	13005
572.003	13500
572.343	13965
572.683	14402
573.022	14847
573.362	15314
573.702	15799
574.042	16283
574.381	16748
574.721	17190
575.061	17612
575.400	17997
575.740	18339
576.079	18641
576.419	18942
576.758	19285
577.097	19689
577.437	20131
577.776	20604
578.115	21098
578.454	21600
578.794	22057
579.133	22413
579.472	22656
579.811	22796
580.150	22840
580.489	22813
580.828	22752
581.167	22696
581.505	22657
581.844	22630
582.183	22602
582.522	22591
582.860	22593
583.199	22595
583.538	22564
583.876	22463
584.215	22268
584.553	21969
584.891	21570
585.230	21082
585.568	20542
585.906	19996
586.245	19503
586.583	19081
586.921	18732
587.259	18414
587.597	18094
587.935	17762
588.273	17421
588.611	17104
588.949	16823
589.287	16589
589.625	16405
589.963	16260
590.300	16144
590.638	16038
590.976	15919
591.313	15779
591.651	15645
591.989	15530
592.326	15437
592.664	15356
593.001	15291
593.338	15252
593.676	15232
594.013	15241
594.350	15299
594.687	15396
595.025	15504
595.362	15602
595.699	15672
596.036	15716
596.373	15725
596.710	15694
597.047	15637
597.384	15567
597.720	15490
598.057	15427
598.394	15381
598.731	15355
599.067	15356
599.404	15383
599.741	15448
600.077	15538
600.414	15638
600.750	15743
601.087	15823
601.423	15861
601.759	15865
602.096	15839
602.432	15794
602.768	15724
603.104	15628
603.440	15508
603.776	15381
604.112	15242
604.448	15102
604.784	14952
605.120	14793
605.456	14639
605.792	14479
606.128	14309
606.463	14135
606.799	13960
607.135	13803
607.470	13644
607.806	13488
608.142	13336
608.477	13189
608.812	13048
609.148	12905
609.483	12756
609.819	12604
610.154	12459
610.489	12324
610.824	12207
611.159	12109
611.494	12010
611.830	11924
612.165	11838
612.500	11742
612.834	11630
613.169	11502
613.504	11363
613.839	11206
614.174	11028
614.509	10850
614.843	10672
615.178	10503
615.512	10335
615.847	10171
616.182	10008
616.516	9842
616.850	9667
617.185	9486
617.519	9302
617.853	9104
618.188	8899
618.522	8711
618.856	8552
619.190	8415
619.524	8293
619.858	8198
620.192	8122
620.526	8054
620.860	7988
621.194	7924
621.528	7861
621.862	7798
622.195	7721
622.529	7640
622.863	7556
623.196	7472
623.530	7387
623.864	7301
624.197	7214
624.530	7130
624.864	7055
625.197	6976
625.531	6887
625.864	6778
626.197	6662
626.530	6538
626.863	6397
627.196	6244
627.529	6089
627.862	5936
628.195	5785
628.528	5636
628.861	5493
629.194	5366
629.527	5243
629.860	5122
630.192	5003
630.525	4892
630.858	4787
631.190	4689
631.523	4594
631.855	4505
632.188	4428
632.520	4355
632.852	4287
633.185	4217
633.517	4149
633.849	4088
634.182	4032
634.514	3979
634.846	3932
635.178	3889
635.510	3852
635.842	3818
636.174	3784
636.506	3751
636.837	3718
637.169	3686
637.501	3651
637.833	3614
638.164	3572
638.496	3524
638.828	3471
639.159	3412
639.491	3347
639.822	3281
640.154	3213
640.485	3146
640.816	3080
641.147	3015
641.479	2952
641.810	2892
642.141	2833
642.472	2775
642.803	2717
643.134	2663
643.465	2616
643.796	2578
644.127	2552
644.458	2538
644.789	2538
645.119	2552
645.450	2576
645.781	2603
646.111	2629
646.442	2652
646.773	2670
647.103	2684
647.433	2696
647.764	2710
648.094	2727
648.425	2749
648.755	2776
649.085	2806
649.415	2839
649.745	2872
650.075	2907
650.405	2946
650.735	3031
651.065	3645
651.395	5543
651.725	8657
652.055	12293
652.385	15924
652.715	19554
653.044	23185
653.374	26823
653.704	30465
654.033	33492
654.363	35400
654.692	36668
655.022	37492
655.351	38034
655.680	38371
656.010	38554
656.339	38636
656.668	38659
656.997	38648
657.326	38615
657.655	38522
657.984	37889
658.313	35961
658.642	32807
658.971	29120
659.300	25434
659.629	21749
659.958	18064
660.286	14379
660.615	10696
660.944	7636
661.272	5699
661.601	4405
661.929	3551
662.258	2975
662.586	2598
662.915	2368
663.243	2235
663.571	2160
663.899	2114
664.228	2086
664.556	2067
664.884	2054
665.212	2045
665.540	2038
665.868	2035
666.196	2033
666.524	2031
666.852	2033
667.179	2042
667.507	2057
667.835	2080
668.162	2111
668.490	2148
668.818	2193
669.145	2239
669.473	2285
669.800	2329
670.127	2367
670.455	2398
670.782	2424
671.109	2447
671.436	2467
671.764	2482
672.091	2496
672.418	2507
672.745	2517
673.072	2526
673.399	2537
673.726	2549
674.053	2559
674.379	2562
674.706	2561
675.033	2560
675.359	2556
675.686	2551
676.013	2548
676.339	2549
676.666	2557
676.992	2576
677.318	2601
677.645	2632
677.971	2660
678.297	2686
678.624	2710
678.950	2734
679.276	2756
679.602	2777
679.928	2800
680.254	2828
680.580	2863
680.906	2908
681.232	2964
681.558	3023
681.883	3081
682.209	3134
682.535	3184
682.860	3229
683.186	3268
683.511	3298
683.837	3318
684.162	3334
684.488	3346
684.813	3358
685.138	3370
685.464	3380
685.789	3388
686.114	3397
686.439	3408
686.764	3421
687.089	3429
687.414	3430
687.739	3419
688.064	3399
688.389	3373
688.714	3342
689.039	3309
689.363	3274
689.688	3236
690.013	3199
690.337	3165
690.662	3138
690.986	3113
691.311	3088
691.635	3062
691.959	3039
692.284	3024
692.608	3020
692.932	3026
693.256	3036
693.580	3049
693.904	3066
694.228	3086
694.552	3104
694.876	3112
695.200	3110
695.524	3096
695.848	3076
696.172	3051
696.495	3025
696.819	2998
697.143	2970
697.466	2942
697.790	2917
698.113	2901
698.437	2893
698.760	2892
699.083	2890
699.407	2883
699.730	2867
700.053	2844
700.376	2812
700.699	2767
701.022	2710
701.345	2648
701.668	2590
701.991	2542
702.314	2509
702.637	2494
702.960	2501
703.283	2527
703.605	2573
703.928	2635
704.251	2706
704.573	2777
704.896	2840
705.218	2891
705.540	2932
705.863	2966
706.185	2993
706.507	3017
706.830	3040
707.152	3063
707.474	3088
707.796	3116
708.118	3146
708.440	3174
708.762	3199
709.084	3219
709.406	3231
709.728	3233
710.049	3227
710.371	3214
710.693	3193
711.014	3170
711.336	3147
711.658	3127
711.979	3110
712.301	3093
712.622	3075
712.943	3054
713.265	3028
713.586	3002
713.907	2976
714.228	2953
714.549	2935
714.870	2923
715.191	2918
715.512	2917
715.833	2913
716.154	2906
716.475	2893
716.796	2875
717.117	2848
717.437	2816
717.758	2781
718.078	2745
718.399	2709
718.719	2678
719.040	2650
719.360	2629
719.681	2614
720.001	2605
720.321	2599
720.642	2597
720.962	2599
721.282	2605
721.602	2614
721.922	2624
722.242	2637
722.562	2654
722.882	2675
723.202	2694
723.521	2711
723.841	2730
724.161	2748
724.481	2768
724.800	2787
725.120	2812
725.439	2842
725.759	2876
726.078	2915
726.398	2962
726.717	3020
727.036	3085
727.355	3153
727.675	3220
727.994	3284
728.313	3345
728.632	3398
728.951	3441
729.270	3479
729.589	3515
729.908	3559
730.226	3608
730.545	3663
730.864	3722
731.182	3785
731.501	3850
731.820	3911
732.138	3964
732.457	4011
732.775	4054
733.093	4088
733.412	4109
733.730	4115
734.048	4106
734.367	4088
734.685	4064
735.003	4036
735.321	4012
735.639	3992
735.957	3977
736.275	3962
736.593	3940
736.910	3907
737.228	3861
737.546	3801
737.863	3731
738.181	3655
738.499	3574
738.816	3494
739.134	3416
739.451	3337
739.768	3257
740.086	3181
740.403	3109
740.720	3043
741.038	2981
741.355	2921
741.672	2862
741.989	2801
742.306	2738
742.623	2673
742.940	2610
743.257	2552
743.573	2501
743.890	2459
744.207	2429
744.523	2407
744.840	2393
745.157	2385
745.473	2384
745.790	2393
746.106	2412
746.422	2440
746.739	2476
747.055	2518
747.371	2566
747.687	2616
748.004	2664
748.320	2705
748.636	2743
748.952	2781
749.268	2818
749.584	2854
749.899	2887
750.215	2921
750.531	2959
750.847	3001
751.162	3043
751.478	3084
751.793	3128
752.109	3174
752.424	3222
752.740	3273
753.055	3330
753.370	3398
753.686	3478
754.001	3564
754.316	3653
754.631	3748
754.946	3849
755.261	3955
755.576	4057
755.891	4156
756.206	4255
756.521	4359
756.836	4465
757.150	4566
757.465	4655
757.780	4732
758.094	4797
758.409	4846
758.723	4878
759.038	4892
759.352	4893
759.667	4878
759.981	4854
760.295	4830
760.609	4811
760.923	4799
761.238	4793
761.552	4789
761.866	4783
762.180	4773
762.493	4747
762.807	4697
763.121	4621
763.435	4526
763.749	4421
764.062	4323
764.376	4242
764.689	4185
765.003	4155
765.316	4150
765.630	4164
765.943	4188
766.257	4216
766.570	4240
766.883	4246
767.196	4236
767.509	4209
767.822	4170
768.135	4117
768.448	4061
768.761	4002
769.074	3951
769.387	3912
769.700	3887
770.013	3872
770.325	3861
770.638	3843
770.950	3811
771.263	3760
771.575	3688
771.888	3597
772.200	3492
772.513	3377
772.825	3257
773.137	3133
773.449	3012
773.761	2894
774.074	2785
774.386	2687
774.698	2606
775.010	2539
775.321	2491
775.633	2460
775.945	2442
776.257	2432
776.568	2429
776.880	2436
777.192	2455
777.503	2481
777.815	2515
778.126	2557
778.438	2609
778.749	2664
779.060	2718
779.372	2768
779.683	2817
779.994	2861
780.305	2896
780.616	2920
780.927	2935
781.238	2940
781.549	2934
781.860	2914
782.171	2888
782.481	2858
782.792	2828
783.103	2797
783.413	2764
783.724	2729
784.034	2696
784.345	2666
784.655	2637
784.966	2610
785.276	2579
785.586	2551
785.896	2521
786.207	2491
786.517	2459
786.827	2426
787.137	2396
787.447	2367
787.757	2339
788.066	2312
788.376	2286
788.686	2261
788.996	2235
789.305	2209
789.615	2189
789.925	2178
790.234	2175
790.544	2180
790.853	2190
791.162	2202
791.472	2211
791.781	2215
792.090	2210
792.399	2196
792.708	2175
793.017	2152
793.326	2130
793.635	2109
793.944	2089
794.253	2073
794.562	2061
794.871	2053
795.179	2048
795.488	2041
795.797	2030
796.105	2012
796.414	1981
796.722	1940
797.031	1888
797.339	1825
797.647	1754
797.956	1681
798.264	1613
798.572	1556
798.880	1512
799.188	1480
799.496	1456
799.804	1438
800.112	1425
800.420	1413
800.728	1402
801.035	1387
801.343	1370
801.651	1357
801.958	1353
802.266	1359
802.573	1370
802.881	1384
803.188	1403
803.496	1423
803.803	1443
804.110	1461
804.417	1478
804.724	1492
805.032	1506
805.339	1516
805.646	1524
805.953	1527
806.259	1528
806.566	1526
806.873	1520
807.180	1513
807.486	1504
807.793	1494
808.100	1478
808.406	1454
808.713	1420
809.019	1381
809.326	1342
809.632	1304
809.938	1269
810.244	1237
810.551	1210
810.857	1188
811.163	1168
811.469	1148
811.775	1125
812.081	1102
812.387	1081
812.692	1064
812.998	1051
813.304	1041
813.610	1032
813.915	1025
814.221	1020
814.526	1015
814.832	1011
815.137	1007
815.443	1000
815.748	990
816.053	977
816.358	964
816.664	951
816.969	940
817.274	930
817.579	921
817.884	916
818.189	915
818.493	914
818.798	912
819.103	906
819.408	897
819.712	887
820.017	876
820.321	863
820.626	851
820.930	840
821.235	833
821.539	830
821.843	830
822.148	832
822.452	833
822.756	832
823.060	829
823.364	824
823.668	816
823.972	808
824.276	800
824.580	793
824.883	789
825.187	787
825.491	786
825.795	786
826.098	786
826.402	785
826.705	782
827.008	777
827.312	768
827.615	756
827.918	740
828.222	722
828.525	704
828.828	687
829.131	669
829.434	652
829.737	636
830.040	624
830.343	613
830.645	603
830.948	594
831.251	585
831.553	577
831.856	571
832.159	564
832.461	557
832.764	549
833.066	541
833.368	535
833.671	531
833.973	527
834.275	523
834.577	520
834.879	515
835.181	510
835.483	505
835.785	498
836.087	488
836.389	478
836.690	466
836.992	453
837.294	440
837.595	426
837.897	411
838.198	397
838.500	383
838.801	370
839.103	359
839.404	351
839.705	342
840.006	336
840.307	331
840.608	327
840.910	324
841.210	322
841.511	319
841.812	316
842.113	312
842.414	308
842.715	302
843.015	296
843.316	289
843.616	283
843.917	278
844.217	273
844.518	269
844.818	265
845.118	263
845.419	262
845.719	260
846.019	258
846.319	257
846.619	256
846.919	254
847.219	253
847.519	252
847.819	251
848.118	251
848.418	254
848.718	262
849.017	275
849.317	293
849.616	315
849.916	340
850.215	368
850.515	398
850.814	428
851.113	455
851.412	479
851.712	501
852.011	522
852.310	541
852.609	558
852.908	573
853.206	586
853.505	599
853.804	609
854.103	618
854.401	625
854.700	628
854.999	625
855.297	617
855.595	605
855.894	587
856.192	565
856.491	540
856.789	514
857.087	486
857.385	460
857.683	437
857.981	416
858.279	397
858.577	379
858.875	363
859.173	349
859.471	339
859.768	330
860.066	322
860.363	316
860.661	311
860.959	306
861.256	302
861.553	298
861.851	292
862.148	286
862.445	281
862.742	275
863.039	270
863.337	266
863.634	263
863.931	261
864.227	260
864.524	260
864.821	260
865.118	259
865.415	257
865.711	253
866.008	249
866.304	244
866.601	239
866.897	235
867.194	231
867.490	229
867.786	228
868.082	228
868.379	228
868.675	229
868.971	229
869.267	230
869.563	229
869.859	229
870.154	228
870.450	227
870.746	225
871.042	224
871.337	224
871.633	225
871.928	226
872.224	227
872.519	230
872.815	231
873.110	232
873.405	232
873.700	231
873.995	231
874.291	231
874.586	232
874.881	233
875.175	236
875.470	239
875.765	244
876.060	248
876.355	253
876.649	258
876.944	263
877.238	267
877.533	271
877.827	274
878.122	277
878.416	278
878.710	277
879.005	277
879.299	276
879.593	274
879.887	273
880.181	272
880.475	270
880.769	268
881.063	266
881.356	263
881.650	259
881.944	255
882.238	214
882.531	201
882.825	201
883.118	206
883.412	201
883.705	206
883.998	210
884.291	216
884.585	213
884.878	227
>>>>>>>>>> END of Data <<<<<<<<<<