Date	2021年06月15日火曜日 04時35分52秒
Spectrometers	USB2+H05879
ダーク	使用
リファレンス	使用
積分時間[msec]	10
平均回数	280
ｽﾑｰｼﾞﾝｸﾞ	10
Electrical Dark	USE
ピクセル数	2048
計測モード	吸光度
保存開始波長[nm]	190.664
保存終了波長[nm]	884.878
保存ﾋﾟｯﾁ波長[nm]	全波長

>>>>>>>>>> Data Start <<<<<<<<<<<<
190.664	0.000000
191.040	0.000000
191.415	0.000000
191.791	-2.478822
192.166	-0.629441
192.542	-0.656609
192.917	0.000000
193.293	-0.489626
193.668	-0.488245
194.044	-1.117509
194.419	0.000000
194.794	-1.410743
195.170	-1.315311
195.545	-1.216170
195.920	-1.084449
196.296	-0.964319
196.671	-0.809932
197.046	-0.661480
197.421	-0.609448
197.796	-0.602524
198.171	-0.566843
198.546	-0.520580
198.922	-0.474329
199.297	-0.451015
199.672	-0.425143
200.047	-0.407488
200.422	-0.374492
200.796	-0.365512
201.171	-0.339455
201.546	-0.331490
201.921	-0.324649
202.296	-0.320121
202.671	-0.296277
203.045	-0.274756
203.420	-0.264366
203.795	-0.255019
204.170	-0.252721
204.544	-0.249980
204.919	-0.249170
205.294	-0.244404
205.668	-0.231680
206.043	-0.219828
206.417	-0.228375
206.792	-0.216618
207.166	-0.210927
207.541	-0.205322
207.915	-0.208304
208.289	-0.197878
208.664	-0.196413
209.038	-0.195645
209.412	-0.181740
209.787	-0.168525
210.161	-0.151126
210.535	-0.151504
210.909	-0.141354
211.284	-0.138688
211.658	-0.137859
212.032	-0.130874
212.406	-0.138071
212.780	-0.135135
213.154	-0.141986
213.528	-0.144576
213.902	-0.141713
214.276	-0.128434
214.650	-0.130828
215.024	-0.123978
215.398	-0.124556
215.772	-0.116410
216.145	-0.121427
216.519	-0.116309
216.893	-0.114796
217.267	-0.125926
217.640	-0.122559
218.014	-0.113566
218.388	-0.107099
218.761	-0.111733
219.135	-0.096610
219.508	-0.101859
219.882	-0.109418
220.256	-0.108204
220.629	-0.103724
221.003	-0.098536
221.376	-0.096360
221.749	-0.097545
222.123	-0.102017
222.496	-0.103526
222.869	-0.104155
223.243	-0.096053
223.616	-0.092635
223.989	-0.094714
224.362	-0.094889
224.736	-0.099414
225.109	-0.094352
225.482	-0.101485
225.855	-0.106540
226.228	-0.108162
226.601	-0.108121
226.974	-0.111825
227.347	-0.101960
227.720	-0.102770
228.093	-0.102545
228.466	-0.113318
228.839	-0.111591
229.212	-0.113435
229.585	-0.124710
229.957	-0.120706
230.330	-0.116205
230.703	-0.109688
231.076	-0.110417
231.448	-0.113066
231.821	-0.111925
232.194	-0.108622
232.566	-0.110227
232.939	-0.117594
233.311	-0.121746
233.684	-0.118869
234.056	-0.119848
234.429	-0.118899
234.801	-0.118108
235.174	-0.109912
235.546	-0.103024
235.918	-0.098914
236.291	-0.091761
236.663	-0.084284
237.035	-0.081511
237.408	-0.067335
237.780	-0.059032
238.152	-0.060204
238.524	-0.073123
238.896	-0.072188
239.268	-0.074476
239.641	-0.075363
240.013	-0.069880
240.385	-0.061629
240.757	-0.056813
241.129	-0.050449
241.500	-0.050594
241.872	-0.044844
242.244	-0.044457
242.616	-0.044155
242.988	-0.048251
243.360	-0.042060
243.731	-0.037997
244.103	-0.040027
244.475	-0.045364
244.847	-0.040090
245.218	-0.038484
245.590	-0.042059
245.961	-0.037008
246.333	-0.027941
246.705	-0.034008
247.076	-0.027859
247.448	-0.021882
247.819	-0.023239
248.190	-0.016797
248.562	-0.017362
248.933	-0.016475
249.305	-0.014937
249.676	-0.012209
250.047	-0.013557
250.418	-0.018938
250.790	-0.020121
251.161	-0.024707
251.532	-0.026217
251.903	-0.025073
252.274	-0.018814
252.645	-0.015335
253.016	-0.018298
253.387	-0.020379
253.758	-0.024641
254.129	-0.028284
254.500	-0.025793
254.871	-0.025008
255.242	-0.024583
255.613	-0.025709
255.984	-0.033371
256.355	-0.033315
256.725	-0.030581
257.096	-0.028966
257.467	-0.034410
257.838	-0.033113
258.208	-0.033953
258.579	-0.032229
258.949	-0.037378
259.320	-0.034238
259.690	-0.032365
260.061	-0.030468
260.431	-0.032299
260.802	-0.034812
261.172	-0.035327
261.543	-0.032194
261.913	-0.031262
262.283	-0.031544
262.654	-0.031121
263.024	-0.032189
263.394	-0.028477
263.764	-0.025823
264.135	-0.018524
264.505	-0.019482
264.875	-0.021763
265.245	-0.023413
265.615	-0.022498
265.985	-0.015062
266.355	-0.010808
266.725	-0.009031
267.095	-0.002952
267.465	0.004072
267.835	-0.000436
268.205	-0.006951
268.575	-0.003934
268.944	0.002363
269.314	-0.001379
269.684	0.003818
270.054	-0.004620
270.423	-0.001699
270.793	-0.003277
271.163	-0.005229
271.532	-0.003478
271.902	-0.008639
272.271	-0.006825
272.641	-0.004782
273.010	-0.005304
273.380	-0.008178
273.749	-0.006405
274.119	-0.004728
274.488	0.007883
274.857	0.002228
275.227	-0.001328
275.596	-0.001516
275.965	0.007449
276.335	0.008475
276.704	0.000503
277.073	0.000185
277.442	-0.000499
277.811	0.008307
278.180	0.008169
278.549	0.011692
278.918	0.008248
279.287	0.004778
279.656	0.012970
280.025	0.013678
280.394	0.011563
280.763	0.015851
281.132	0.019606
281.501	0.019751
281.869	0.012582
282.238	0.007883
282.607	0.005572
282.976	0.012113
283.344	0.017396
283.713	0.015671
284.081	0.013928
284.450	0.018621
284.819	0.019695
285.187	0.022173
285.556	0.025914
285.924	0.021841
286.292	0.020803
286.661	0.021993
287.029	0.024161
287.398	0.024156
287.766	0.021098
288.134	0.020060
288.502	0.024385
288.871	0.027249
289.239	0.027595
289.607	0.030302
289.975	0.027707
290.343	0.030965
290.711	0.024290
291.079	0.020491
291.447	0.024010
291.815	0.029996
292.183	0.033371
292.551	0.038421
292.919	0.040107
293.287	0.048243
293.655	0.054285
294.022	0.057058
294.390	0.059934
294.758	0.060910
295.126	0.056979
295.493	0.061365
295.861	0.068564
296.229	0.066068
296.596	0.067080
296.964	0.065936
297.331	0.068750
297.699	0.073355
298.066	0.077519
298.434	0.080633
298.801	0.081028
299.168	0.075623
299.536	0.080142
299.903	0.078711
300.270	0.076367
300.638	0.081840
301.005	0.084250
301.372	0.085106
301.739	0.090438
302.106	0.092992
302.473	0.102687
302.840	0.110680
303.207	0.125140
303.574	0.139700
303.941	0.151658
304.308	0.157427
304.675	0.169443
305.042	0.185612
305.409	0.203824
305.776	0.217223
306.143	0.235651
306.509	0.255204
306.876	0.280650
307.243	0.298498
307.610	0.323404
307.976	0.346999
308.343	0.366661
308.709	0.390462
309.076	0.416995
309.442	0.439139
309.809	0.464812
310.175	0.490846
310.542	0.512334
310.908	0.530235
311.275	0.550596
311.641	0.574889
312.007	0.602422
312.373	0.625353
312.740	0.644273
313.106	0.664315
313.472	0.687514
313.838	0.706907
314.204	0.724813
314.570	0.737894
314.936	0.752871
315.302	0.766544
315.668	0.781785
316.034	0.801533
316.400	0.816827
316.766	0.828822
317.132	0.843533
317.498	0.855226
317.864	0.861658
318.230	0.871314
318.595	0.881493
318.961	0.888088
319.327	0.896374
319.692	0.901392
320.058	0.906886
320.424	0.914269
320.789	0.918127
321.155	0.924376
321.520	0.930993
321.886	0.939428
322.251	0.945689
322.616	0.949934
322.982	0.954012
323.347	0.956051
323.712	0.957852
324.078	0.958941
324.443	0.960652
324.808	0.961372
325.173	0.963465
325.539	0.964923
325.904	0.966409
326.269	0.967217
326.634	0.967877
326.999	0.968127
327.364	0.969614
327.729	0.970497
328.094	0.970643
328.459	0.971856
328.823	0.971567
329.188	0.971568
329.553	0.970193
329.918	0.970694
330.283	0.970329
330.647	0.970674
331.012	0.971418
331.377	0.970593
331.741	0.969697
332.106	0.969998
332.470	0.969637
332.835	0.969278
333.199	0.969644
333.564	0.970051
333.928	0.970139
334.293	0.970493
334.657	0.969688
335.021	0.969650
335.386	0.968985
335.750	0.968033
336.114	0.967419
336.478	0.966834
336.843	0.966027
337.207	0.966059
337.571	0.965934
337.935	0.966140
338.299	0.965714
338.663	0.964994
339.027	0.965420
339.391	0.965559
339.755	0.965357
340.119	0.965209
340.483	0.965151
340.846	0.964912
341.210	0.964838
341.574	0.964879
341.938	0.964712
342.301	0.965349
342.665	0.965455
343.029	0.965764
343.392	0.966344
343.756	0.966101
344.119	0.966389
344.483	0.966750
344.846	0.966723
345.210	0.966861
345.573	0.966569
345.937	0.966477
346.300	0.966789
346.663	0.966335
347.027	0.966608
347.390	0.966613
347.753	0.966561
348.116	0.966372
348.479	0.967014
348.843	0.966994
349.206	0.966808
349.569	0.966817
349.932	0.966840
350.295	0.966699
350.658	0.966701
351.021	0.966966
351.383	0.967419
351.746	0.967312
352.109	0.967441
352.472	0.967424
352.835	0.967222
353.197	0.967757
353.560	0.968168
353.923	0.967845
354.285	0.967950
354.648	0.967977
355.011	0.968074
355.373	0.968480
355.736	0.968973
356.098	0.968652
356.461	0.968591
356.823	0.968677
357.185	0.969064
357.548	0.968970
357.910	0.969071
358.272	0.969038
358.635	0.968624
358.997	0.968591
359.359	0.968948
359.721	0.968933
360.083	0.969000
360.445	0.969047
360.807	0.968707
361.169	0.968634
361.531	0.969053
361.893	0.969153
362.255	0.968961
362.617	0.968812
362.979	0.968805
363.341	0.968359
363.703	0.968190
364.064	0.968240
364.426	0.968226
364.788	0.967927
365.149	0.967818
365.511	0.967857
365.873	0.968009
366.234	0.968029
366.596	0.968022
366.957	0.967656
367.319	0.967715
367.680	0.967645
368.042	0.967368
368.403	0.967397
368.764	0.967335
369.126	0.967186
369.487	0.967126
369.848	0.967031
370.209	0.967079
370.570	0.967021
370.931	0.967103
371.293	0.966788
371.654	0.966560
372.015	0.966774
372.376	0.966636
372.737	0.966643
373.098	0.966175
373.458	0.965731
373.819	0.965974
374.180	0.965987
374.541	0.966042
374.902	0.965767
375.263	0.965705
375.623	0.965770
375.984	0.965821
376.345	0.965707
376.705	0.965730
377.066	0.965762
377.426	0.965561
377.787	0.965513
378.147	0.965402
378.508	0.965411
378.868	0.965764
379.228	0.965614
379.589	0.965004
379.949	0.964936
380.309	0.964767
380.670	0.964787
381.030	0.964783
381.390	0.964798
381.750	0.964234
382.110	0.963935
382.470	0.963734
382.830	0.963539
383.190	0.963236
383.550	0.962839
383.910	0.962495
384.270	0.962045
384.630	0.961578
384.990	0.961488
385.350	0.961228
385.709	0.960815
386.069	0.960428
386.429	0.959870
386.788	0.959380
387.148	0.959318
387.508	0.958779
387.867	0.958303
388.227	0.957790
388.586	0.957245
388.946	0.956560
389.305	0.956192
389.665	0.955636
390.024	0.955110
390.383	0.954760
390.743	0.954290
391.102	0.953840
391.461	0.953250
391.820	0.952694
392.179	0.951875
392.539	0.950929
392.898	0.950228
393.257	0.949433
393.616	0.948845
393.975	0.948139
394.334	0.947628
394.693	0.946897
395.051	0.946327
395.410	0.945594
395.769	0.944998
396.128	0.944370
396.487	0.943497
396.845	0.942514
397.204	0.941697
397.563	0.940624
397.921	0.939262
398.280	0.938077
398.638	0.936816
398.997	0.935718
399.355	0.934457
399.714	0.933521
400.072	0.932582
400.431	0.931072
400.789	0.929825
401.147	0.928448
401.506	0.927123
401.864	0.925814
402.222	0.924299
402.580	0.922673
402.938	0.921279
403.297	0.919590
403.655	0.918132
404.013	0.916649
404.371	0.915378
404.729	0.913856
405.087	0.912639
405.444	0.911413
405.802	0.909917
406.160	0.908634
406.518	0.906965
406.876	0.905487
407.233	0.904046
407.591	0.902702
407.949	0.901506
408.306	0.899951
408.664	0.898369
409.022	0.896765
409.379	0.895040
409.737	0.893478
410.094	0.891971
410.451	0.890318
410.809	0.888880
411.166	0.887282
411.523	0.885700
411.881	0.884099
412.238	0.882562
412.595	0.880745
412.952	0.878974
413.310	0.877499
413.667	0.875899
414.024	0.874513
414.381	0.872854
414.738	0.871208
415.095	0.869285
415.452	0.867583
415.809	0.865852
416.165	0.864097
416.522	0.862271
416.879	0.860478
417.236	0.858590
417.593	0.856624
417.949	0.854795
418.306	0.853051
418.663	0.851317
419.019	0.849443
419.376	0.847627
419.732	0.845797
420.089	0.844102
420.445	0.842417
420.802	0.840596
421.158	0.838749
421.514	0.836965
421.871	0.835274
422.227	0.833542
422.583	0.831859
422.939	0.829872
423.295	0.828081
423.652	0.826222
424.008	0.824341
424.364	0.822609
424.720	0.820697
425.076	0.818900
425.432	0.816820
425.788	0.814674
426.143	0.812375
426.499	0.810261
426.855	0.808160
427.211	0.806129
427.567	0.804174
427.922	0.802254
428.278	0.800219
428.634	0.798411
428.989	0.796514
429.345	0.794598
429.700	0.792634
430.056	0.790688
430.411	0.789020
430.767	0.787235
431.122	0.785328
431.478	0.783411
431.833	0.781258
432.188	0.779236
432.543	0.777146
432.899	0.775078
433.254	0.772856
433.609	0.770753
433.964	0.768594
434.319	0.766339
434.674	0.763981
435.029	0.761712
435.384	0.759457
435.739	0.757333
436.094	0.755150
436.449	0.753066
436.804	0.750996
437.158	0.748754
437.513	0.746627
437.868	0.744297
438.223	0.742008
438.577	0.739776
438.932	0.737724
439.287	0.735708
439.641	0.733669
439.996	0.731524
440.350	0.729581
440.704	0.727689
441.059	0.725755
441.413	0.723643
441.768	0.721569
442.122	0.719674
442.476	0.717543
442.830	0.715651
443.185	0.713686
443.539	0.711752
443.893	0.709735
444.247	0.707816
444.601	0.705970
444.955	0.703949
445.309	0.701954
445.663	0.699869
446.017	0.697819
446.371	0.695682
446.724	0.693504
447.078	0.691388
447.432	0.689408
447.786	0.687249
448.139	0.685033
448.493	0.682825
448.847	0.680753
449.200	0.678603
449.554	0.676434
449.907	0.674507
450.261	0.672238
450.614	0.670119
450.968	0.667986
451.321	0.665897
451.674	0.663727
452.027	0.661520
452.381	0.659411
452.734	0.657265
453.087	0.655183
453.440	0.652913
453.793	0.650771
454.146	0.648691
454.499	0.646598
454.852	0.644401
455.205	0.642307
455.558	0.640338
455.911	0.638431
456.264	0.636498
456.617	0.634642
456.970	0.632769
457.322	0.630903
457.675	0.629156
458.028	0.627492
458.380	0.625781
458.733	0.624049
459.086	0.622369
459.438	0.620727
459.791	0.618977
460.143	0.617247
460.496	0.615534
460.848	0.613902
461.200	0.612189
461.553	0.610380
461.905	0.608665
462.257	0.607014
462.609	0.605366
462.961	0.603719
463.314	0.602187
463.666	0.600625
464.018	0.599048
464.370	0.597673
464.722	0.596190
465.074	0.594715
465.426	0.593175
465.777	0.591808
466.129	0.590428
466.481	0.589073
466.833	0.587692
467.184	0.586403
467.536	0.584938
467.888	0.583478
468.239	0.581991
468.591	0.580366
468.943	0.578747
469.294	0.577159
469.646	0.575410
469.997	0.573657
470.348	0.571988
470.700	0.570290
471.051	0.568619
471.402	0.567026
471.754	0.565330
472.105	0.563790
472.456	0.562315
472.807	0.560994
473.158	0.559623
473.509	0.558266
473.860	0.556954
474.211	0.555683
474.562	0.554366
474.913	0.553109
475.264	0.551899
475.615	0.550644
475.966	0.549419
476.316	0.548123
476.667	0.546785
477.018	0.545598
477.368	0.544365
477.719	0.543091
478.070	0.541818
478.420	0.540645
478.771	0.539364
479.121	0.538218
479.472	0.537048
479.822	0.535790
480.172	0.534588
480.523	0.533287
480.873	0.531778
481.223	0.529935
481.573	0.528007
481.924	0.526154
482.274	0.524382
482.624	0.522728
482.974	0.521429
483.324	0.520478
483.674	0.519753
484.024	0.519019
484.374	0.518290
484.724	0.517635
485.073	0.516897
485.423	0.516186
485.773	0.515392
486.123	0.514675
486.472	0.513846
486.822	0.513032
487.172	0.512290
487.521	0.511467
487.871	0.510669
488.220	0.509951
488.570	0.509245
488.919	0.508415
489.268	0.507439
489.618	0.506364
489.967	0.505128
490.316	0.503585
490.666	0.501779
491.015	0.499973
491.364	0.498274
491.713	0.496633
492.062	0.495091
492.411	0.493723
492.760	0.492378
493.109	0.491074
493.458	0.489777
493.807	0.488582
494.156	0.487319
494.505	0.486025
494.853	0.484716
495.202	0.483418
495.551	0.482074
495.900	0.480779
496.248	0.479516
496.597	0.478176
496.945	0.476973
497.294	0.475806
497.642	0.474621
497.991	0.473350
498.339	0.472034
498.688	0.470870
499.036	0.469786
499.384	0.468626
499.732	0.467478
500.081	0.466311
500.429	0.465178
500.777	0.464072
501.125	0.462967
501.473	0.461830
501.821	0.460693
502.169	0.459581
502.517	0.458514
502.865	0.457486
503.213	0.456363
503.561	0.455353
503.908	0.454395
504.256	0.453327
504.604	0.452260
504.952	0.451187
505.299	0.450143
505.647	0.449097
505.994	0.447981
506.342	0.446860
506.689	0.445739
507.037	0.444645
507.384	0.443525
507.732	0.442476
508.079	0.441487
508.426	0.440411
508.774	0.439443
509.121	0.438449
509.468	0.437567
509.815	0.436610
510.162	0.435660
510.509	0.434764
510.856	0.433774
511.203	0.432788
511.550	0.431810
511.897	0.430851
512.244	0.429910
512.591	0.428969
512.938	0.428028
513.284	0.427013
513.631	0.426012
513.978	0.425026
514.324	0.424047
514.671	0.423095
515.018	0.422060
515.364	0.420991
515.711	0.420016
516.057	0.418945
516.403	0.417993
516.750	0.416960
517.096	0.415981
517.443	0.415050
517.789	0.414192
518.135	0.413244
518.481	0.412356
518.827	0.411438
519.173	0.410460
519.519	0.409454
519.865	0.408495
520.211	0.407566
520.557	0.406682
520.903	0.405753
521.249	0.404858
521.595	0.403845
521.941	0.402890
522.287	0.401921
522.632	0.400885
522.978	0.399891
523.324	0.398987
523.669	0.398043
524.015	0.397041
524.360	0.395957
524.706	0.394935
525.051	0.393791
525.397	0.392744
525.742	0.391759
526.087	0.390832
526.433	0.389929
526.778	0.389072
527.123	0.388187
527.468	0.387278
527.813	0.386386
528.158	0.385474
528.504	0.384561
528.849	0.383649
529.193	0.382689
529.538	0.381714
529.883	0.380678
530.228	0.379637
530.573	0.378675
530.918	0.377662
531.263	0.376755
531.607	0.375888
531.952	0.374964
532.296	0.374065
532.641	0.373181
532.986	0.372202
533.330	0.371241
533.675	0.370287
534.019	0.369315
534.363	0.368277
534.708	0.367204
535.052	0.366255
535.396	0.365339
535.741	0.364471
536.085	0.363557
536.429	0.362628
536.773	0.361741
537.117	0.360761
537.461	0.359708
537.805	0.358549
538.149	0.357412
538.493	0.356242
538.837	0.355100
539.181	0.353931
539.524	0.352790
539.868	0.351618
540.212	0.350471
540.556	0.349302
540.899	0.348146
541.243	0.347082
541.586	0.346012
541.930	0.344939
542.273	0.343795
542.617	0.342651
542.960	0.341418
543.304	0.340150
543.647	0.338883
543.990	0.337530
544.333	0.336263
544.677	0.335091
545.020	0.333935
545.363	0.332798
545.706	0.331656
546.049	0.330570
546.392	0.329437
546.735	0.328247
547.078	0.327077
547.421	0.325849
547.764	0.324613
548.106	0.323276
548.449	0.321850
548.792	0.320490
549.135	0.319184
549.477	0.317822
549.820	0.316538
550.162	0.315242
550.505	0.313971
550.847	0.312722
551.190	0.311436
551.532	0.310129
551.875	0.308703
552.217	0.307259
552.559	0.305805
552.901	0.304391
553.244	0.302925
553.586	0.301554
553.928	0.300268
554.270	0.299007
554.612	0.297808
554.954	0.296544
555.296	0.295312
555.638	0.294059
555.980	0.292685
556.322	0.291233
556.663	0.289749
557.005	0.288107
557.347	0.286554
557.689	0.285061
558.030	0.283545
558.372	0.282077
558.713	0.280670
559.055	0.279214
559.396	0.277729
559.738	0.276217
560.079	0.274667
560.421	0.273199
560.762	0.271733
561.103	0.270240
561.444	0.268792
561.786	0.267327
562.127	0.265896
562.468	0.264448
562.809	0.262910
563.150	0.261340
563.491	0.259714
563.832	0.258065
564.173	0.256380
564.514	0.254645
564.855	0.252807
565.195	0.250897
565.536	0.248960
565.877	0.247060
566.218	0.245225
566.558	0.243444
566.899	0.241729
567.239	0.240205
567.580	0.238804
567.920	0.237548
568.261	0.236435
568.601	0.235402
568.941	0.234444
569.282	0.233523
569.622	0.232564
569.962	0.231649
570.302	0.230743
570.643	0.229929
570.983	0.229188
571.323	0.228507
571.663	0.227815
572.003	0.227144
572.343	0.226476
572.683	0.225717
573.022	0.224858
573.362	0.223964
573.702	0.223090
574.042	0.222268
574.381	0.221439
574.721	0.220631
575.061	0.219884
575.400	0.219210
575.740	0.218509
576.079	0.217797
576.419	0.216971
576.758	0.216122
577.097	0.215178
577.437	0.214201
577.776	0.213153
578.115	0.212120
578.454	0.211135
578.794	0.210321
579.133	0.209624
579.472	0.209027
579.811	0.208479
580.150	0.207936
580.489	0.207390
580.828	0.206751
581.167	0.206069
581.505	0.205401
581.844	0.204716
582.183	0.203990
582.522	0.203244
582.860	0.202520
583.199	0.201822
583.538	0.201218
583.876	0.200639
584.215	0.200114
584.553	0.199621
584.891	0.199146
585.230	0.198668
585.568	0.198135
585.906	0.197487
586.245	0.196810
586.583	0.196068
586.921	0.195412
587.259	0.194849
587.597	0.194306
587.935	0.193748
588.273	0.193123
588.611	0.192379
588.949	0.191584
589.287	0.190758
589.625	0.189899
589.963	0.189118
590.300	0.188385
590.638	0.187712
590.976	0.187089
591.313	0.186446
591.651	0.185744
591.989	0.185051
592.326	0.184368
592.664	0.183786
593.001	0.183221
593.338	0.182669
593.676	0.182197
594.013	0.181697
594.350	0.181237
594.687	0.180780
595.025	0.180405
595.362	0.180007
595.699	0.179596
596.036	0.179202
596.373	0.178801
596.710	0.178413
597.047	0.177958
597.384	0.177492
597.720	0.177019
598.057	0.176492
598.394	0.175969
598.731	0.175462
599.067	0.174951
599.404	0.174414
599.741	0.173869
600.077	0.173358
600.414	0.172909
600.750	0.172517
601.087	0.172192
601.423	0.171789
601.759	0.171411
602.096	0.171001
602.432	0.170612
602.768	0.170205
603.104	0.169781
603.440	0.169348
603.776	0.168958
604.112	0.168575
604.448	0.168233
604.784	0.167914
605.120	0.167601
605.456	0.167298
605.792	0.166998
606.128	0.166688
606.463	0.166419
606.799	0.166076
607.135	0.165761
607.470	0.165418
607.806	0.165046
608.142	0.164659
608.477	0.164340
608.812	0.163995
609.148	0.163678
609.483	0.163382
609.819	0.163081
610.154	0.162767
610.489	0.162451
610.824	0.162075
611.159	0.161764
611.494	0.161426
611.830	0.161098
612.165	0.160869
612.500	0.160639
612.834	0.160426
613.169	0.160243
613.504	0.159958
613.839	0.159727
614.174	0.159444
614.509	0.159167
614.843	0.158902
615.178	0.158649
615.512	0.158408
615.847	0.158175
616.182	0.157970
616.516	0.157766
616.850	0.157575
617.185	0.157374
617.519	0.157197
617.853	0.157020
618.188	0.156736
618.522	0.156427
618.856	0.156085
619.190	0.155669
619.524	0.155294
619.858	0.154934
620.192	0.154599
620.526	0.154308
620.860	0.154107
621.194	0.153855
621.528	0.153619
621.862	0.153372
622.195	0.153154
622.529	0.152874
622.863	0.152607
623.196	0.152355
623.530	0.152105
623.864	0.151850
624.197	0.151642
624.530	0.151383
624.864	0.151161
625.197	0.150987
625.531	0.150792
625.864	0.150605
626.197	0.150413
626.530	0.150228
626.863	0.150001
627.196	0.149756
627.529	0.149494
627.862	0.149176
628.195	0.148897
628.528	0.148621
628.861	0.148305
629.194	0.147980
629.527	0.147720
629.860	0.147511
630.192	0.147172
630.525	0.146827
630.858	0.146559
631.190	0.146184
631.523	0.145794
631.855	0.145351
632.188	0.144983
632.520	0.144650
632.852	0.144318
633.185	0.143997
633.517	0.143750
633.849	0.143545
634.182	0.143353
634.514	0.143266
634.846	0.143143
635.178	0.143029
635.510	0.142857
635.842	0.142704
636.174	0.142591
636.506	0.142440
636.837	0.142238
637.169	0.142076
637.501	0.141912
637.833	0.141735
638.164	0.141595
638.496	0.141427
638.828	0.141225
639.159	0.140973
639.491	0.140699
639.822	0.140435
640.154	0.140128
640.485	0.139673
640.816	0.139166
641.147	0.138747
641.479	0.138198
641.810	0.137721
642.141	0.137398
642.472	0.137021
642.803	0.136672
643.134	0.136281
643.465	0.135934
643.796	0.135554
644.127	0.135274
644.458	0.135139
644.789	0.134905
645.119	0.134795
645.450	0.134889
645.781	0.135153
646.111	0.135394
646.442	0.135667
646.773	0.135799
647.103	0.135917
647.433	0.135957
647.764	0.136018
648.094	0.135973
648.425	0.136085
648.755	0.136186
649.085	0.136119
649.415	0.136153
649.745	0.136238
650.075	0.136379
650.405	0.136385
650.735	0.135014
651.065	0.126294
651.395	0.118539
651.725	0.106077
652.055	0.072580
652.385	0.053773
652.715	0.041706
653.044	0.033321
653.374	0.027171
653.704	0.022489
654.033	0.031496
654.363	0.037740
654.692	0.041398
655.022	0.043576
655.351	0.044916
655.680	0.045705
656.010	0.046133
656.339	0.046321
656.668	0.046367
656.997	0.046329
657.326	0.046242
657.655	0.046137
657.984	0.045532
658.313	0.042291
658.642	0.038229
658.971	0.044207
659.300	0.051852
659.629	0.061998
659.958	0.076093
660.286	0.097009
660.615	0.131364
660.944	0.135051
661.272	0.133738
661.601	0.132805
661.929	0.132339
662.258	0.132154
662.586	0.132036
662.915	0.131911
663.243	0.131597
663.571	0.131190
663.899	0.130855
664.228	0.130634
664.556	0.130448
664.884	0.130171
665.212	0.130032
665.540	0.129863
665.868	0.129819
666.196	0.129815
666.524	0.129736
666.852	0.129715
667.179	0.129695
667.507	0.129627
667.835	0.129583
668.162	0.129482
668.490	0.129538
668.818	0.129584
669.145	0.129622
669.473	0.129804
669.800	0.129979
670.127	0.130151
670.455	0.130311
670.782	0.130405
671.109	0.130459
671.436	0.130603
671.764	0.130828
672.091	0.130931
672.418	0.131041
672.745	0.131012
673.072	0.131083
673.399	0.131078
673.726	0.130927
674.053	0.130887
674.379	0.130863
674.706	0.130814
675.033	0.130719
675.359	0.130658
675.686	0.130527
676.013	0.130445
676.339	0.130362
676.666	0.130194
676.992	0.130095
677.318	0.130077
677.645	0.130025
677.971	0.130011
678.297	0.129964
678.624	0.129940
678.950	0.129844
679.276	0.129770
679.602	0.129657
679.928	0.129503
680.254	0.129413
680.580	0.129399
680.906	0.129391
681.232	0.129413
681.558	0.129506
681.883	0.129618
682.209	0.129719
682.535	0.129893
682.860	0.129950
683.186	0.130032
683.511	0.130064
683.837	0.130041
684.162	0.129916
684.488	0.129885
684.813	0.129856
685.138	0.129755
685.464	0.129639
685.789	0.129525
686.114	0.129494
686.439	0.129513
686.764	0.129512
687.089	0.129432
687.414	0.129415
687.739	0.129419
688.064	0.129390
688.389	0.129283
688.714	0.129266
689.039	0.129082
689.363	0.128950
689.688	0.128814
690.013	0.128616
690.337	0.128489
690.662	0.128453
690.986	0.128503
691.311	0.128486
691.635	0.128384
691.959	0.128322
692.284	0.128147
692.608	0.128034
692.932	0.127841
693.256	0.127866
693.580	0.127812
693.904	0.127908
694.228	0.127977
694.552	0.128050
694.876	0.128119
695.200	0.128140
695.524	0.128056
695.848	0.128027
696.172	0.127878
696.495	0.127729
696.819	0.127598
697.143	0.127381
697.466	0.127187
697.790	0.126901
698.113	0.126630
698.437	0.126442
698.760	0.126184
699.083	0.126134
699.407	0.126082
699.730	0.126085
700.053	0.125999
700.376	0.125906
700.699	0.125621
701.022	0.125323
701.345	0.124880
701.668	0.124285
701.991	0.123772
702.314	0.123157
702.637	0.122516
702.960	0.121944
703.283	0.121457
703.605	0.120979
703.928	0.120771
704.251	0.120613
704.573	0.120573
704.896	0.120584
705.218	0.120539
705.540	0.120489
705.863	0.120189
706.185	0.119900
706.507	0.119433
706.830	0.118895
707.152	0.118383
707.474	0.117975
707.796	0.117483
708.118	0.117096
708.440	0.116828
708.762	0.116626
709.084	0.116466
709.406	0.116338
709.728	0.116226
710.049	0.116060
710.371	0.115938
710.693	0.115648
711.014	0.115272
711.336	0.114952
711.658	0.114630
711.979	0.114354
712.301	0.114139
712.622	0.114034
712.943	0.113885
713.265	0.113832
713.586	0.113733
713.907	0.113659
714.228	0.113666
714.549	0.113691
714.870	0.113617
715.191	0.113591
715.512	0.113555
715.833	0.113574
716.154	0.113500
716.475	0.113321
716.796	0.113184
717.117	0.112919
717.437	0.112604
717.758	0.112301
718.078	0.111896
718.399	0.111469
718.719	0.111082
719.040	0.110667
719.360	0.110306
719.681	0.109956
720.001	0.109731
720.321	0.109555
720.642	0.109376
720.962	0.109091
721.282	0.108935
721.602	0.108845
721.922	0.108647
722.242	0.108343
722.562	0.108072
722.882	0.107919
723.202	0.107902
723.521	0.107783
723.841	0.107704
724.161	0.107709
724.481	0.107711
724.800	0.107651
725.120	0.107554
725.439	0.107402
725.759	0.107279
726.078	0.107254
726.398	0.107180
726.717	0.107089
727.036	0.107000
727.355	0.107038
727.675	0.107144
727.994	0.107189
728.313	0.107327
728.632	0.107402
728.951	0.107501
729.270	0.107436
729.589	0.107277
729.908	0.106979
730.226	0.106737
730.545	0.106505
730.864	0.106202
731.182	0.105886
731.501	0.105674
731.820	0.105569
732.138	0.105490
732.457	0.105330
732.775	0.105082
733.093	0.105003
733.412	0.104856
733.730	0.104756
734.048	0.104551
734.367	0.104234
734.685	0.103920
735.003	0.103463
735.321	0.103093
735.639	0.102667
735.957	0.102441
736.275	0.102180
736.593	0.102015
736.910	0.101878
737.228	0.101757
737.546	0.101663
737.863	0.101608
738.181	0.101438
738.499	0.101136
738.816	0.100863
739.134	0.100654
739.451	0.100482
739.768	0.100212
740.086	0.099871
740.403	0.099491
740.720	0.099128
741.038	0.098862
741.355	0.098437
741.672	0.098070
741.989	0.097627
742.306	0.097188
742.623	0.096627
742.940	0.096111
743.257	0.095532
743.573	0.094899
743.890	0.094221
744.207	0.093576
744.523	0.092943
744.840	0.092423
745.157	0.091994
745.473	0.091431
745.790	0.091008
746.106	0.090579
746.422	0.090074
746.739	0.089753
747.055	0.089481
747.371	0.089288
747.687	0.089125
748.004	0.089157
748.320	0.089136
748.636	0.089142
748.952	0.089154
749.268	0.089121
749.584	0.089125
749.899	0.089151
750.215	0.089161
750.531	0.089143
750.847	0.089184
751.162	0.089139
751.478	0.089146
751.793	0.089112
752.109	0.089009
752.424	0.088869
752.740	0.088733
753.055	0.088711
753.370	0.088651
753.686	0.088715
754.001	0.088799
754.316	0.088922
754.631	0.089030
754.946	0.089072
755.261	0.089134
755.576	0.089151
755.891	0.089063
756.206	0.088910
756.521	0.088752
756.836	0.088637
757.150	0.088577
757.465	0.088492
757.780	0.088485
758.094	0.088430
758.409	0.088384
758.723	0.088459
759.038	0.088438
759.352	0.088417
759.667	0.088324
759.981	0.088203
760.295	0.087912
760.609	0.087626
760.923	0.087281
761.238	0.086866
761.552	0.086564
761.866	0.086232
762.180	0.086043
762.493	0.085973
762.807	0.085925
763.121	0.085822
763.435	0.085648
763.749	0.085418
764.062	0.085151
764.376	0.084800
764.689	0.084495
765.003	0.084145
765.316	0.083871
765.630	0.083731
765.943	0.083529
766.257	0.083408
766.570	0.083179
766.883	0.083002
767.196	0.082699
767.509	0.082351
767.822	0.082078
768.135	0.081705
768.448	0.081396
768.761	0.080957
769.074	0.080561
769.387	0.080226
769.700	0.079874
770.013	0.079612
770.325	0.079360
770.638	0.079192
770.950	0.079054
771.263	0.078819
771.575	0.078594
771.888	0.078239
772.200	0.077881
772.513	0.077459
772.825	0.076951
773.137	0.076575
773.449	0.076185
773.761	0.075835
774.074	0.075541
774.386	0.075231
774.698	0.074900
775.010	0.074448
775.321	0.074122
775.633	0.073705
775.945	0.073388
776.257	0.073240
776.568	0.072991
776.880	0.072860
777.192	0.072699
777.503	0.072525
777.815	0.072407
778.126	0.072467
778.438	0.072535
778.749	0.072641
779.060	0.072782
779.372	0.072833
779.683	0.072914
779.994	0.072943
780.305	0.072982
780.616	0.073058
780.927	0.073105
781.238	0.073121
781.549	0.073220
781.860	0.073256
782.171	0.073368
782.481	0.073352
782.792	0.073220
783.103	0.073202
783.413	0.073172
783.724	0.073010
784.034	0.072926
784.345	0.072790
784.655	0.072620
784.966	0.072366
785.276	0.072154
785.586	0.071939
785.896	0.071821
786.207	0.071729
786.517	0.071729
786.827	0.071707
787.137	0.071564
787.447	0.071431
787.757	0.071466
788.066	0.071390
788.376	0.071381
788.686	0.071244
788.996	0.071210
789.305	0.071182
789.615	0.071075
789.925	0.070909
790.234	0.070946
790.544	0.070905
790.853	0.070966
791.162	0.070959
791.472	0.071137
791.781	0.071188
792.090	0.071342
792.399	0.071400
792.708	0.071236
793.017	0.071134
793.326	0.070914
793.635	0.070753
793.944	0.070565
794.253	0.070204
794.562	0.070029
794.871	0.069873
795.179	0.069707
795.488	0.069521
795.797	0.069486
796.105	0.069378
796.414	0.069402
796.722	0.069221
797.031	0.069047
797.339	0.068780
797.647	0.068523
797.956	0.068075
798.264	0.067551
798.572	0.066881
798.880	0.066375
799.188	0.066059
799.496	0.065629
799.804	0.065553
800.112	0.065431
800.420	0.065300
800.728	0.065374
801.035	0.065277
801.343	0.064944
801.651	0.064606
801.958	0.064458
802.266	0.064352
802.573	0.064401
802.881	0.064283
803.188	0.064285
803.496	0.064520
803.803	0.064792
804.110	0.064850
804.417	0.064774
804.724	0.064752
805.032	0.064913
805.339	0.064938
805.646	0.064906
805.953	0.064715
806.259	0.064660
806.566	0.064543
806.873	0.064581
807.180	0.064440
807.486	0.064418
807.793	0.064496
808.100	0.064646
808.406	0.064626
808.713	0.064476
809.019	0.064172
809.326	0.063875
809.632	0.063732
809.938	0.063118
810.244	0.062512
810.551	0.062086
810.857	0.061783
811.163	0.061542
811.469	0.061350
811.775	0.061126
812.081	0.061123
812.387	0.061270
812.692	0.061144
812.998	0.061190
813.304	0.061064
813.610	0.061238
813.915	0.061134
814.221	0.061128
814.526	0.061082
814.832	0.061127
815.137	0.061090
815.443	0.061132
815.748	0.061201
816.053	0.061021
816.358	0.060872
816.664	0.060892
816.969	0.060858
817.274	0.061169
817.579	0.061119
817.884	0.060840
818.189	0.060940
818.493	0.060932
818.798	0.060891
819.103	0.060776
819.408	0.060513
819.712	0.060459
820.017	0.060142
820.321	0.059994
820.626	0.059868
820.930	0.059609
821.235	0.059273
821.539	0.059228
821.843	0.059161
822.148	0.059140
822.452	0.059288
822.756	0.059751
823.060	0.059716
823.364	0.060002
823.668	0.059879
823.972	0.060058
824.276	0.060342
824.580	0.060273
824.883	0.060395
825.187	0.060530
825.491	0.060717
825.795	0.061016
826.098	0.061039
826.402	0.061200
826.705	0.061335
827.008	0.061239
827.312	0.061280
827.615	0.061316
827.918	0.061098
828.222	0.060976
828.525	0.060779
828.828	0.060653
829.131	0.060411
829.434	0.060221
829.737	0.059879
830.040	0.059403
830.343	0.059142
830.645	0.059007
830.948	0.058762
831.251	0.058511
831.553	0.058390
831.856	0.057983
832.159	0.058020
832.461	0.058079
832.764	0.058075
833.066	0.057903
833.368	0.058056
833.671	0.057903
833.973	0.057772
834.275	0.057667
834.577	0.057434
834.879	0.057315
835.181	0.056874
835.483	0.056315
835.785	0.056340
836.087	0.055937
836.389	0.055939
836.690	0.055295
836.992	0.054326
837.294	0.053499
837.595	0.052339
837.897	0.051151
838.198	0.050695
838.500	0.049855
838.801	0.048901
839.103	0.048199
839.404	0.047661
839.705	0.046968
840.006	0.046623
840.307	0.046644
840.608	0.046413
840.910	0.046608
841.210	0.046938
841.511	0.047342
841.812	0.047723
842.113	0.047835
842.414	0.047854
842.715	0.047730
843.015	0.047413
843.316	0.047424
843.616	0.047267
843.917	0.047290
844.217	0.047242
844.518	0.046887
844.818	0.046192
845.118	0.046218
845.419	0.046570
845.719	0.046916
846.019	0.046491
846.319	0.046555
846.619	0.046198
846.919	0.046677
847.219	0.046685
847.519	0.046286
847.819	0.046162
848.118	0.045772
848.418	0.045082
848.718	0.044317
849.017	0.044155
849.317	0.044422
849.616	0.044594
849.916	0.045422
850.215	0.046040
850.515	0.046813
850.814	0.047450
851.113	0.048233
851.412	0.048759
851.712	0.048530
852.011	0.048686
852.310	0.049594
852.609	0.050115
852.908	0.050182
853.206	0.050526
853.505	0.050913
853.804	0.051099
854.103	0.051267
854.401	0.051545
854.700	0.051766
854.999	0.051979
855.297	0.052078
855.595	0.052366
855.894	0.052422
856.192	0.052574
856.491	0.052639
856.789	0.052603
857.087	0.052358
857.385	0.052084
857.683	0.051768
857.981	0.052041
858.279	0.051837
858.577	0.050331
858.875	0.049417
859.173	0.048878
859.471	0.048512
859.768	0.047937
860.066	0.047840
860.363	0.047274
860.661	0.047010
860.959	0.046905
861.256	0.047265
861.553	0.047311
861.851	0.046509
862.148	0.046462
862.445	0.046187
862.742	0.045734
863.039	0.045540
863.337	0.045253
863.634	0.044673
863.931	0.044092
864.227	0.043564
864.524	0.043388
864.821	0.044308
865.118	0.044194
865.415	0.044518
865.711	0.044050
866.008	0.043405
866.304	0.043132
866.601	0.043268
866.897	0.042758
867.194	0.042590
867.490	0.042019
867.786	0.041704
868.082	0.041902
868.379	0.042190
868.675	0.042187
868.971	0.042306
869.267	0.042261
869.563	0.042935
869.859	0.043032
870.154	0.043169
870.450	0.043717
870.746	0.043133
871.042	0.042749
871.337	0.042669
871.633	0.042577
871.928	0.042093
872.224	0.041997
872.519	0.041093
872.815	0.040770
873.110	0.041203
873.405	0.040888
873.700	0.040493
873.995	0.040121
874.291	0.040177
874.586	0.040046
874.881	0.039144
875.175	0.039581
875.470	0.039753
875.765	0.039580
876.060	0.039359
876.355	0.039906
876.649	0.039638
876.944	0.040245
877.238	0.040334
877.533	0.041186
877.827	0.041675
878.122	0.042148
878.416	0.042775
878.710	0.043965
879.005	0.044078
879.299	0.043752
879.593	0.043286
879.887	0.043758
880.181	0.043728
880.475	0.044009
880.769	0.043949
881.063	0.044448
881.356	0.044268
881.650	0.043957
881.944	0.043327
882.238	0.037279
882.531	0.027190
882.825	0.040897
883.118	0.033071
883.412	0.043659
883.705	0.040663
883.998	0.040700
884.291	0.043792
884.585	0.039819
884.878	0.031202
>>>>>>>>>> END of Data <<<<<<<<<<
>>>>>>>>>> Raw Data Start <<<<<<<<
190.664	-392
191.040	11
191.415	11
191.791	6
192.166	9
192.542	5
192.917	5
193.293	9
193.668	6
194.044	10
194.419	-9
194.794	10
195.170	10
195.545	10
195.920	10
196.296	11
196.671	11
197.046	12
197.421	12
197.796	13
198.171	13
198.546	14
198.922	14
199.297	14
199.672	15
200.047	15
200.422	15
200.796	15
201.171	15
201.546	15
201.921	15
202.296	16
202.671	16
203.045	16
203.420	17
203.795	17
204.170	17
204.544	17
204.919	17
205.294	17
205.668	17
206.043	17
206.417	16
206.792	16
207.166	16
207.541	16
207.915	15
208.289	16
208.664	15
209.038	15
209.412	16
209.787	16
210.161	15
210.535	15
210.909	16
211.284	15
211.658	15
212.032	15
212.406	15
212.780	15
213.154	15
213.528	15
213.902	15
214.276	15
214.650	15
215.024	15
215.398	15
215.772	15
216.145	15
216.519	15
216.893	15
217.267	15
217.640	15
218.014	15
218.388	16
218.761	15
219.135	16
219.508	16
219.882	16
220.256	16
220.629	16
221.003	16
221.376	16
221.749	16
222.123	16
222.496	16
222.869	16
223.243	16
223.616	16
223.989	16
224.362	16
224.736	17
225.109	17
225.482	17
225.855	17
226.228	17
226.601	17
226.974	17
227.347	17
227.720	17
228.093	17
228.466	17
228.839	17
229.212	17
229.585	17
229.957	16
230.330	17
230.703	17
231.076	17
231.448	17
231.821	16
232.194	16
232.566	16
232.939	16
233.311	16
233.684	16
234.056	16
234.429	16
234.801	16
235.174	16
235.546	16
235.918	16
236.291	16
236.663	16
237.035	16
237.408	16
237.780	16
238.152	16
238.524	17
238.896	17
239.268	17
239.641	17
240.013	17
240.385	17
240.757	17
241.129	17
241.500	17
241.872	17
242.244	17
242.616	17
242.988	17
243.360	17
243.731	17
244.103	17
244.475	17
244.847	17
245.218	17
245.590	17
245.961	17
246.333	17
246.705	17
247.076	17
247.448	17
247.819	17
248.190	17
248.562	18
248.933	18
249.305	18
249.676	18
250.047	18
250.418	18
250.790	18
251.161	18
251.532	18
251.903	18
252.274	18
252.645	18
253.016	18
253.387	18
253.758	18
254.129	18
254.500	18
254.871	19
255.242	19
255.613	18
255.984	19
256.355	18
256.725	18
257.096	18
257.467	18
257.838	18
258.208	18
258.579	18
258.949	19
259.320	19
259.690	19
260.061	19
260.431	19
260.802	20
261.172	20
261.543	20
261.913	20
262.283	20
262.654	20
263.024	20
263.394	19
263.764	19
264.135	20
264.505	20
264.875	20
265.245	20
265.615	20
265.985	19
266.355	19
266.725	19
267.095	19
267.465	19
267.835	19
268.205	19
268.575	19
268.944	19
269.314	18
269.684	18
270.054	18
270.423	18
270.793	18
271.163	18
271.532	18
271.902	19
272.271	18
272.641	18
273.010	18
273.380	19
273.749	19
274.119	19
274.488	19
274.857	19
275.227	19
275.596	19
275.965	19
276.335	19
276.704	19
277.073	20
277.442	20
277.811	20
278.180	20
278.549	20
278.918	20
279.287	21
279.656	20
280.025	20
280.394	20
280.763	20
281.132	20
281.501	20
281.869	20
282.238	20
282.607	20
282.976	20
283.344	19
283.713	20
284.081	19
284.450	19
284.819	20
285.187	20
285.556	19
285.924	20
286.292	20
286.661	19
287.029	19
287.398	19
287.766	19
288.134	20
288.502	19
288.871	20
289.239	20
289.607	20
289.975	20
290.343	20
290.711	20
291.079	20
291.447	20
291.815	20
292.183	20
292.551	20
292.919	20
293.287	19
293.655	19
294.022	19
294.390	19
294.758	19
295.126	19
295.493	19
295.861	19
296.229	19
296.596	19
296.964	19
297.331	19
297.699	19
298.066	19
298.434	19
298.801	19
299.168	19
299.536	19
299.903	19
300.270	19
300.638	20
301.005	20
301.372	20
301.739	20
302.106	21
302.473	21
302.840	21
303.207	21
303.574	21
303.941	21
304.308	22
304.675	22
305.042	22
305.409	22
305.776	22
306.143	22
306.509	22
306.876	22
307.243	23
307.610	23
307.976	23
308.343	24
308.709	24
309.076	24
309.442	24
309.809	24
310.175	25
310.542	25
310.908	26
311.275	26
311.641	27
312.007	27
312.373	28
312.740	28
313.106	29
313.472	30
313.838	30
314.204	31
314.570	32
314.936	33
315.302	34
315.668	35
316.034	36
316.400	37
316.766	38
317.132	39
317.498	40
317.864	42
318.230	43
318.595	44
318.961	46
319.327	47
319.692	49
320.058	51
320.424	53
320.789	55
321.155	57
321.520	59
321.886	61
322.251	63
322.616	66
322.982	69
323.347	72
323.712	75
324.078	79
324.443	82
324.808	86
325.173	89
325.539	93
325.904	96
326.269	100
326.634	104
326.999	108
327.364	111
327.729	115
328.094	119
328.459	123
328.823	127
329.188	131
329.553	135
329.918	139
330.283	143
330.647	147
331.012	151
331.377	155
331.741	159
332.106	163
332.470	167
332.835	172
333.199	176
333.564	180
333.928	184
334.293	188
334.657	193
335.021	198
335.386	202
335.750	207
336.114	212
336.478	217
336.843	222
337.207	226
337.571	231
337.935	235
338.299	240
338.663	245
339.027	249
339.391	254
339.755	258
340.119	263
340.483	267
340.846	272
341.210	276
341.574	281
341.938	285
342.301	289
342.665	293
343.029	297
343.392	301
343.756	306
344.119	310
344.483	314
344.846	318
345.210	321
345.573	326
345.937	330
346.300	333
346.663	337
347.027	341
347.390	345
347.753	349
348.116	352
348.479	355
348.843	359
349.206	363
349.569	366
349.932	370
350.295	373
350.658	376
351.021	379
351.383	382
351.746	385
352.109	388
352.472	391
352.835	394
353.197	396
353.560	399
353.923	402
354.285	405
354.648	407
355.011	410
355.373	412
355.736	414
356.098	417
356.461	420
356.823	422
357.185	424
357.548	427
357.910	429
358.272	432
358.635	435
358.997	437
359.359	439
359.721	442
360.083	444
360.445	446
360.807	449
361.169	451
361.531	453
361.893	455
362.255	458
362.617	461
362.979	463
363.341	466
363.703	469
364.064	471
364.426	474
364.788	477
365.149	479
365.511	482
365.873	483
366.234	485
366.596	487
366.957	489
367.319	491
367.680	492
368.042	494
368.403	495
368.764	497
369.126	498
369.487	499
369.848	500
370.209	501
370.570	502
370.931	503
371.293	504
371.654	505
372.015	505
372.376	506
372.737	507
373.098	508
373.458	510
373.819	511
374.180	513
374.541	515
374.902	517
375.263	519
375.623	522
375.984	524
376.345	527
376.705	529
377.066	531
377.426	534
377.787	536
378.147	538
378.508	540
378.868	541
379.228	543
379.589	546
379.949	548
380.309	550
380.670	552
381.030	553
381.390	555
381.750	557
382.110	558
382.470	559
382.830	560
383.190	562
383.550	563
383.910	565
384.270	568
384.630	571
384.990	573
385.350	576
385.709	579
386.069	581
386.429	583
386.788	586
387.148	587
387.508	589
387.867	592
388.227	595
388.586	599
388.946	603
389.305	607
389.665	612
390.024	616
390.383	621
390.743	624
391.102	627
391.461	631
391.820	633
392.179	635
392.539	637
392.898	640
393.257	643
393.616	646
393.975	651
394.334	656
394.693	662
395.051	668
395.410	674
395.769	679
396.128	682
396.487	686
396.845	688
397.204	690
397.563	692
397.921	694
398.280	696
398.638	698
398.997	700
399.355	703
399.714	705
400.072	708
400.431	711
400.789	714
401.147	718
401.506	721
401.864	723
402.222	726
402.580	727
402.938	727
403.297	728
403.655	729
404.013	729
404.371	730
404.729	732
405.087	733
405.444	736
405.802	739
406.160	741
406.518	745
406.876	747
407.233	750
407.591	752
407.949	754
408.306	756
408.664	759
409.022	761
409.379	763
409.737	766
410.094	769
410.451	773
410.809	776
411.166	780
411.523	784
411.881	788
412.238	792
412.595	796
412.952	799
413.310	802
413.667	804
414.024	808
414.381	811
414.738	814
415.095	818
415.452	822
415.809	826
416.165	829
416.522	833
416.879	838
417.236	844
417.593	852
417.949	860
418.306	870
418.663	880
419.019	892
419.376	903
419.732	914
420.089	924
420.445	934
420.802	944
421.158	953
421.514	961
421.871	968
422.227	975
422.583	982
422.939	988
423.295	994
423.652	1001
424.008	1007
424.364	1011
424.720	1015
425.076	1018
425.432	1022
425.788	1025
426.143	1030
426.499	1036
426.855	1043
427.211	1049
427.567	1055
427.922	1061
428.278	1064
428.634	1067
428.989	1071
429.345	1076
429.700	1081
430.056	1088
430.411	1095
430.767	1102
431.122	1110
431.478	1116
431.833	1123
432.188	1129
432.543	1133
432.899	1138
433.254	1141
433.609	1143
433.964	1143
434.319	1144
434.674	1146
435.029	1149
435.384	1153
435.739	1158
436.094	1166
436.449	1174
436.804	1185
437.158	1196
437.513	1208
437.868	1223
438.223	1237
438.577	1253
438.932	1270
439.287	1287
439.641	1304
439.996	1321
440.350	1337
440.704	1354
441.059	1370
441.413	1387
441.768	1404
442.122	1419
442.476	1435
442.830	1449
443.185	1465
443.539	1478
443.893	1493
444.247	1503
444.601	1513
444.955	1520
445.309	1524
445.663	1527
446.017	1530
446.371	1531
446.724	1532
447.078	1533
447.432	1531
447.786	1530
448.139	1528
448.493	1526
448.847	1522
449.200	1518
449.554	1515
449.907	1510
450.261	1507
450.614	1503
450.968	1500
451.321	1496
451.674	1494
452.027	1490
452.381	1488
452.734	1488
453.087	1487
453.440	1488
453.793	1489
454.146	1492
454.499	1499
454.852	1508
455.205	1517
455.558	1527
455.911	1538
456.264	1548
456.617	1558
456.970	1568
457.322	1576
457.675	1584
458.028	1591
458.380	1596
458.733	1601
459.086	1606
459.438	1613
459.791	1621
460.143	1630
460.496	1644
460.848	1657
461.200	1673
461.553	1691
461.905	1707
462.257	1720
462.609	1732
462.961	1743
463.314	1752
463.666	1760
464.018	1766
464.370	1771
464.722	1779
465.074	1787
465.426	1794
465.777	1800
466.129	1805
466.481	1807
466.833	1808
467.184	1806
467.536	1802
467.888	1796
468.239	1789
468.591	1782
468.943	1776
469.294	1771
469.646	1770
469.997	1771
470.348	1776
470.700	1785
471.051	1798
471.402	1814
471.754	1835
472.105	1856
472.456	1878
472.807	1904
473.158	1933
473.509	1964
473.860	1999
474.211	2034
474.562	2072
474.913	2110
475.264	2151
475.615	2190
475.966	2231
476.316	2269
476.667	2309
477.018	2348
477.368	2389
477.719	2429
478.070	2468
478.420	2504
478.771	2540
479.121	2574
479.472	2609
479.822	2645
480.172	2685
480.523	2731
480.873	2797
481.223	2909
481.573	3077
481.924	3288
482.274	3527
482.624	3778
482.974	4029
483.324	4246
483.674	4410
484.024	4520
484.374	4592
484.724	4635
485.073	4665
485.423	4689
485.773	4712
486.123	4732
486.472	4754
486.822	4773
487.172	4788
487.521	4799
487.871	4801
488.220	4782
488.570	4715
488.919	4592
489.268	4423
489.618	4228
489.967	4018
490.316	3807
490.666	3623
491.015	3492
491.364	3411
491.713	3368
492.062	3352
492.411	3349
492.760	3353
493.109	3360
493.458	3366
493.807	3371
494.156	3374
494.505	3377
494.853	3382
495.202	3389
495.551	3402
495.900	3414
496.248	3427
496.597	3441
496.945	3454
497.294	3466
497.642	3479
497.991	3496
498.339	3517
498.688	3539
499.036	3560
499.384	3579
499.732	3595
500.081	3607
500.429	3617
500.777	3625
501.125	3633
501.473	3641
501.821	3651
502.169	3659
502.517	3666
502.865	3667
503.213	3666
503.561	3664
503.908	3659
504.256	3654
504.604	3647
504.952	3639
505.299	3629
505.647	3615
505.994	3599
506.342	3583
506.689	3567
507.037	3551
507.384	3540
507.732	3530
508.079	3521
508.426	3512
508.774	3504
509.121	3493
509.468	3483
509.815	3471
510.162	3460
510.509	3449
510.856	3438
511.203	3425
511.550	3413
511.897	3402
512.244	3390
512.591	3379
512.938	3368
513.284	3358
513.631	3346
513.978	3334
514.324	3320
514.671	3306
515.018	3291
515.364	3279
515.711	3268
516.057	3255
516.403	3243
516.750	3231
517.096	3216
517.443	3200
517.789	3184
518.135	3168
518.481	3155
518.827	3142
519.173	3127
519.519	3115
519.865	3103
520.211	3092
520.557	3081
520.903	3071
521.249	3062
521.595	3055
521.941	3045
522.287	3037
522.632	3029
522.978	3021
523.324	3014
523.669	3009
524.015	3006
524.360	3009
524.706	3014
525.051	3024
525.397	3036
525.742	3048
526.087	3061
526.433	3074
526.778	3084
527.123	3090
527.468	3096
527.813	3100
528.158	3105
528.504	3112
528.849	3123
529.193	3140
529.538	3160
529.883	3186
530.228	3217
530.573	3251
530.918	3287
531.263	3323
531.607	3354
531.952	3383
532.296	3405
532.641	3423
532.986	3436
533.330	3448
533.675	3460
534.019	3478
534.363	3503
534.708	3534
535.052	3569
535.396	3607
535.741	3643
536.085	3673
536.429	3700
536.773	3721
537.117	3737
537.461	3749
537.805	3760
538.149	3772
538.493	3785
538.837	3800
539.181	3819
539.524	3844
539.868	3875
540.212	3911
540.556	3949
540.899	3989
541.243	4023
541.586	4050
541.930	4069
542.273	4081
542.617	4088
542.960	4095
543.304	4109
543.647	4128
543.990	4157
544.333	4189
544.677	4222
545.020	4253
545.363	4277
545.706	4293
546.049	4301
546.392	4301
546.735	4294
547.078	4283
547.421	4273
547.764	4265
548.106	4260
548.449	4260
548.792	4267
549.135	4281
549.477	4302
549.820	4323
550.162	4339
550.505	4349
550.847	4352
551.190	4347
551.532	4340
551.875	4333
552.217	4328
552.559	4327
552.901	4333
553.244	4344
553.586	4359
553.928	4374
554.270	4386
554.612	4394
554.954	4397
555.296	4396
555.638	4394
555.980	4393
556.322	4395
556.663	4405
557.005	4426
557.347	4456
557.689	4490
558.030	4523
558.372	4552
558.713	4576
559.055	4599
559.396	4621
559.738	4644
560.079	4671
560.421	4703
560.762	4743
561.103	4789
561.444	4842
561.786	4897
562.127	4957
562.468	5023
562.809	5097
563.150	5179
563.491	5269
563.832	5368
564.173	5483
564.514	5617
564.855	5780
565.195	5984
565.536	6232
565.877	6522
566.218	6853
566.558	7228
566.899	7640
567.239	8085
567.580	8550
567.920	9028
568.261	9509
568.601	9999
568.941	10506
569.282	11027
569.622	11567
569.962	12127
570.302	12723
570.643	13336
570.983	13952
571.323	14543
571.663	15110
572.003	15644
572.343	16139
572.683	16597
573.022	17062
573.362	17549
573.702	18051
574.042	18548
574.381	19022
574.721	19470
575.061	19895
575.400	20276
575.740	20610
576.079	20900
576.419	21188
576.758	21517
577.097	21914
577.437	22349
577.776	22816
578.115	23305
578.454	23802
578.794	24253
579.133	24593
579.472	24813
579.811	24922
580.150	24927
580.489	24850
580.828	24737
581.167	24628
581.505	24539
581.844	24461
582.183	24385
582.522	24329
582.860	24289
583.199	24251
583.538	24178
583.876	24030
584.215	23781
584.553	23419
584.891	22954
585.230	22394
585.568	21781
585.906	21164
586.245	20606
586.583	20129
586.921	19731
587.259	19370
587.597	19010
587.935	18637
588.273	18255
588.611	17898
588.949	17578
589.287	17306
589.625	17088
589.963	16911
590.300	16765
590.638	16632
590.976	16484
591.313	16315
591.651	16156
591.989	16015
592.326	15900
592.664	15798
593.001	15713
593.338	15656
593.676	15621
594.013	15617
594.350	15660
594.687	15746
595.025	15842
595.362	15928
595.699	15984
596.036	16012
596.373	16007
596.710	15958
597.047	15883
597.384	15796
597.720	15700
598.057	15622
598.394	15561
598.731	15522
599.067	15508
599.404	15522
599.741	15574
600.077	15652
600.414	15740
600.750	15833
601.087	15901
601.423	15929
601.759	15921
602.096	15883
602.432	15826
602.768	15746
603.104	15639
603.440	15509
603.776	15371
604.112	15222
604.448	15071
604.784	14912
605.120	14744
605.456	14581
605.792	14411
606.128	14234
606.463	14052
606.799	13869
607.135	13702
607.470	13537
607.806	13374
608.142	13217
608.477	13063
608.812	12916
609.148	12768
609.483	12612
609.819	12454
610.154	12301
610.489	12161
610.824	12039
611.159	11935
611.494	11830
611.830	11738
612.165	11647
612.500	11546
612.834	11430
613.169	11298
613.504	11154
613.839	10995
614.174	10815
614.509	10634
614.843	10454
615.178	10283
615.512	10114
615.847	9948
616.182	9784
616.516	9618
616.850	9443
617.185	9261
617.519	9077
617.853	8879
618.188	8674
618.522	8487
618.856	8328
619.190	8190
619.524	8068
619.858	7971
620.192	7894
620.526	7826
620.860	7757
621.194	7692
621.528	7627
621.862	7563
622.195	7486
622.529	7404
622.863	7319
623.196	7234
623.530	7149
623.864	7063
624.197	6976
624.530	6892
624.864	6817
625.197	6738
625.531	6649
625.864	6542
626.197	6428
626.530	6305
626.863	6166
627.196	6016
627.529	5864
627.862	5715
628.195	5567
628.528	5421
628.861	5281
629.194	5156
629.527	5036
629.860	4917
630.192	4801
630.525	4692
630.858	4590
631.190	4494
631.523	4402
631.855	4315
632.188	4239
632.520	4168
632.852	4101
633.185	4033
633.517	3966
633.849	3906
634.182	3851
634.514	3798
634.846	3751
635.178	3709
635.510	3672
635.842	3638
636.174	3605
636.506	3572
636.837	3540
637.169	3509
637.501	3475
637.833	3439
638.164	3397
638.496	3352
638.828	3300
639.159	3243
639.491	3181
639.822	3116
640.154	3050
640.485	2987
640.816	2924
641.147	2861
641.479	2802
641.810	2744
642.141	2686
642.472	2631
642.803	2575
643.134	2523
643.465	2477
643.796	2441
644.127	2415
644.458	2401
644.789	2400
645.119	2413
645.450	2434
645.781	2458
646.111	2482
646.442	2503
646.773	2520
647.103	2532
647.433	2543
647.764	2555
648.094	2571
648.425	2590
648.755	2614
649.085	2643
649.415	2673
649.745	2704
650.075	2736
650.405	2771
650.735	2850
651.065	3423
651.395	5202
651.725	8132
652.055	11775
652.385	15414
652.715	19052
653.044	22691
653.374	26336
653.704	29986
654.033	32673
654.363	34456
654.692	35636
655.022	36404
655.351	36906
655.680	37218
656.010	37387
656.339	37463
656.668	37483
656.997	37473
657.326	37442
657.655	37355
657.984	36762
658.313	34955
658.642	31986
658.971	28294
659.300	24603
659.629	20911
659.958	17221
660.286	13530
660.615	9841
660.944	7123
661.272	5312
661.601	4105
661.929	3309
662.258	2773
662.586	2423
662.915	2208
663.243	2084
663.571	2014
663.899	1971
664.228	1944
664.556	1926
664.884	1914
665.212	1905
665.540	1898
665.868	1895
666.196	1893
666.524	1891
666.852	1892
667.179	1900
667.507	1914
667.835	1935
668.162	1963
668.490	1997
668.818	2038
669.145	2081
669.473	2123
669.800	2163
670.127	2198
670.455	2226
670.782	2250
671.109	2272
671.436	2289
671.764	2303
672.091	2315
672.418	2325
672.745	2333
673.072	2342
673.399	2352
673.726	2363
674.053	2372
674.379	2374
674.706	2373
675.033	2372
675.359	2368
675.686	2363
676.013	2360
676.339	2361
676.666	2368
676.992	2385
677.318	2408
677.645	2436
677.971	2461
678.297	2485
678.624	2507
678.950	2529
679.276	2549
679.602	2568
679.928	2589
680.254	2614
680.580	2645
680.906	2686
681.232	2737
681.558	2790
681.883	2843
682.209	2892
682.535	2937
682.860	2978
683.186	3013
683.511	3040
683.837	3057
684.162	3071
684.488	3081
684.813	3092
685.138	3103
685.464	3112
685.789	3120
686.114	3127
686.439	3137
686.764	3147
687.089	3156
687.414	3156
687.739	3146
688.064	3127
688.389	3103
688.714	3074
689.039	3043
689.363	3010
689.688	2974
690.013	2939
690.337	2909
690.662	2883
690.986	2859
691.311	2836
691.635	2813
691.959	2791
692.284	2776
692.608	2772
692.932	2777
693.256	2786
693.580	2798
693.904	2812
694.228	2829
694.552	2845
694.876	2852
695.200	2849
695.524	2836
695.848	2818
696.172	2794
696.495	2770
696.819	2745
697.143	2718
697.466	2691
697.790	2669
698.113	2653
698.437	2645
698.760	2644
699.083	2642
699.407	2634
699.730	2620
700.053	2599
700.376	2568
700.699	2527
701.022	2475
701.345	2418
701.668	2365
701.991	2321
702.314	2290
702.637	2276
702.960	2281
703.283	2306
703.605	2347
703.928	2404
704.251	2468
704.573	2532
704.896	2589
705.218	2636
705.540	2673
705.863	2703
706.185	2727
706.507	2749
706.830	2769
707.152	2790
707.474	2812
707.796	2837
708.118	2864
708.440	2890
708.762	2912
709.084	2930
709.406	2940
709.728	2942
710.049	2936
710.371	2923
710.693	2904
711.014	2882
711.336	2861
711.658	2843
711.979	2826
712.301	2811
712.622	2794
712.943	2775
713.265	2751
713.586	2726
713.907	2702
714.228	2682
714.549	2665
714.870	2654
715.191	2649
715.512	2647
715.833	2644
716.154	2636
716.475	2625
716.796	2608
717.117	2584
717.437	2555
717.758	2522
718.078	2489
718.399	2457
718.719	2428
719.040	2404
719.360	2385
719.681	2371
720.001	2363
720.321	2358
720.642	2355
720.962	2357
721.282	2363
721.602	2370
721.922	2379
722.242	2390
722.562	2406
722.882	2425
723.202	2441
723.521	2457
723.841	2474
724.161	2490
724.481	2506
724.800	2524
725.120	2546
725.439	2573
725.759	2604
726.078	2638
726.398	2680
726.717	2732
727.036	2791
727.355	2853
727.675	2913
727.994	2971
728.313	3025
728.632	3073
728.951	3112
729.270	3146
729.589	3178
729.908	3218
730.226	3262
730.545	3311
730.864	3365
731.182	3423
731.501	3481
731.820	3536
732.138	3584
732.457	3626
732.775	3665
733.093	3696
733.412	3715
733.730	3719
734.048	3711
734.367	3695
734.685	3673
735.003	3648
735.321	3626
735.639	3608
735.957	3593
736.275	3580
736.593	3561
736.910	3531
737.228	3489
737.546	3435
737.863	3372
738.181	3302
738.499	3229
738.816	3157
739.134	3086
739.451	3014
739.768	2942
740.086	2873
740.403	2809
740.720	2750
741.038	2694
741.355	2641
741.672	2587
741.989	2533
742.306	2476
742.623	2418
742.940	2362
743.257	2308
743.573	2262
743.890	2225
744.207	2198
744.523	2179
744.840	2167
745.157	2159
745.473	2159
745.790	2168
746.106	2185
746.422	2211
746.739	2244
747.055	2282
747.371	2325
747.687	2371
748.004	2414
748.320	2452
748.636	2485
748.952	2519
749.268	2553
749.584	2586
749.899	2615
750.215	2646
750.531	2680
750.847	2718
751.162	2757
751.478	2794
751.793	2833
752.109	2874
752.424	2919
752.740	2965
753.055	3017
753.370	3079
753.686	3151
754.001	3229
754.316	3311
754.631	3397
754.946	3489
755.261	3585
755.576	3679
755.891	3769
756.206	3859
756.521	3953
756.836	4049
757.150	4142
757.465	4223
757.780	4293
758.094	4352
758.409	4398
758.723	4426
759.038	4439
759.352	4440
759.667	4428
759.981	4406
760.295	4385
760.609	4368
760.923	4358
761.238	4354
761.552	4350
761.866	4346
762.180	4337
762.493	4314
762.807	4269
763.121	4200
763.435	4114
763.749	4019
764.062	3931
764.376	3857
764.689	3806
765.003	3779
765.316	3776
765.630	3789
765.943	3811
766.257	3837
766.570	3859
766.883	3865
767.196	3856
767.509	3832
767.822	3796
768.135	3749
768.448	3698
768.761	3645
769.074	3598
769.387	3563
769.700	3542
770.013	3529
770.325	3519
770.638	3503
770.950	3474
771.263	3428
771.575	3364
771.888	3281
772.200	3185
772.513	3081
772.825	2972
773.137	2860
773.449	2750
773.761	2643
774.074	2543
774.386	2455
774.698	2381
775.010	2321
775.321	2277
775.633	2249
775.945	2234
776.257	2224
776.568	2222
776.880	2229
777.192	2246
777.503	2270
777.815	2302
778.126	2340
778.438	2388
778.749	2439
779.060	2488
779.372	2535
779.683	2580
779.994	2621
780.305	2653
780.616	2675
780.927	2689
781.238	2694
781.549	2688
781.860	2670
782.171	2646
782.481	2619
782.792	2592
783.103	2565
783.413	2535
783.724	2504
784.034	2474
784.345	2446
784.655	2421
784.966	2395
785.276	2369
785.586	2342
785.896	2315
786.207	2288
786.517	2258
786.827	2229
787.137	2202
787.447	2175
787.757	2150
788.066	2126
788.376	2103
788.686	2080
788.996	2056
789.305	2033
789.615	2014
789.925	2004
790.234	2001
790.544	2006
790.853	2016
791.162	2027
791.472	2036
791.781	2040
792.090	2035
792.399	2023
792.708	2004
793.017	1983
793.326	1962
793.635	1943
793.944	1925
794.253	1910
794.562	1899
794.871	1893
795.179	1888
795.488	1881
795.797	1871
796.105	1854
796.414	1826
796.722	1789
797.031	1741
797.339	1684
797.647	1619
797.956	1551
798.264	1489
798.572	1437
798.880	1397
799.188	1367
799.496	1346
799.804	1329
800.112	1317
800.420	1306
800.728	1296
801.035	1282
801.343	1267
801.651	1255
801.958	1251
802.266	1256
802.573	1266
802.881	1280
803.188	1297
803.496	1315
803.803	1334
804.110	1351
804.417	1367
804.724	1380
805.032	1392
805.339	1402
805.646	1409
805.953	1414
806.259	1414
806.566	1412
806.873	1407
807.180	1400
807.486	1392
807.793	1383
808.100	1369
808.406	1346
808.713	1316
809.019	1280
809.326	1244
809.632	1209
809.938	1176
810.244	1147
810.551	1122
810.857	1101
811.163	1083
811.469	1064
811.775	1043
812.081	1022
812.387	1002
812.692	986
812.998	975
813.304	965
813.610	957
813.915	951
814.221	946
814.526	942
814.832	938
815.137	934
815.443	928
815.748	918
816.053	906
816.358	894
816.664	882
816.969	872
817.274	862
817.579	855
817.884	851
818.189	849
818.493	849
818.798	846
819.103	841
819.408	833
819.712	823
820.017	812
820.321	801
820.626	790
820.930	780
821.235	773
821.539	770
821.843	770
822.148	771
822.452	772
822.756	771
823.060	769
823.364	764
823.668	757
823.972	749
824.276	740
824.580	734
824.883	730
825.187	729
825.491	729
825.795	728
826.098	728
826.402	727
826.705	724
827.008	719
827.312	711
827.615	699
827.918	685
828.222	668
828.525	652
828.828	636
829.131	620
829.434	604
829.737	589
830.040	577
830.343	567
830.645	558
830.948	550
831.251	541
831.553	534
831.856	528
832.159	522
832.461	515
832.764	507
833.066	500
833.368	494
833.671	490
833.973	486
834.275	483
834.577	480
834.879	476
835.181	471
835.483	466
835.785	459
836.087	451
836.389	441
836.690	430
836.992	419
837.294	407
837.595	394
837.897	380
838.198	367
838.500	354
838.801	343
839.103	333
839.404	324
839.705	317
840.006	311
840.307	306
840.608	303
840.910	300
841.210	298
841.511	295
841.812	292
842.113	289
842.414	285
842.715	279
843.015	273
843.316	267
843.616	261
843.917	256
844.217	252
844.518	248
844.818	245
845.118	243
845.419	242
845.719	240
846.019	239
846.319	238
846.619	237
846.919	235
847.219	234
847.519	233
847.819	232
848.118	232
848.418	235
848.718	242
849.017	254
849.317	270
849.616	290
849.916	313
850.215	339
850.515	366
850.814	393
851.113	418
851.412	439
851.712	460
852.011	479
852.310	496
852.609	511
852.908	525
853.206	537
853.505	548
853.804	557
854.103	566
854.401	572
854.700	574
854.999	572
855.297	565
855.595	553
855.894	536
856.192	517
856.491	494
856.789	469
857.087	444
857.385	420
857.683	399
857.981	380
858.279	362
858.577	346
858.875	331
859.173	320
859.471	310
859.768	302
860.066	295
860.363	289
860.661	284
860.959	280
861.256	276
861.553	272
861.851	267
862.148	261
862.445	256
862.742	251
863.039	246
863.337	243
863.634	240
863.931	238
864.227	237
864.524	237
864.821	236
865.118	235
865.415	233
865.711	230
866.008	226
866.304	221
866.601	217
866.897	213
867.194	210
867.490	208
867.786	207
868.082	207
868.379	207
868.675	208
868.971	208
869.267	208
869.563	208
869.859	207
870.154	206
870.450	205
870.746	204
871.042	203
871.337	203
871.633	203
871.928	204
872.224	206
872.519	208
872.815	209
873.110	210
873.405	210
873.700	209
873.995	209
874.291	209
874.586	210
874.881	211
875.175	213
875.470	216
875.765	220
876.060	224
876.355	229
876.649	233
876.944	238
877.238	241
877.533	245
877.827	247
878.122	249
878.416	250
878.710	250
879.005	249
879.299	248
879.593	247
879.887	246
880.181	245
880.475	243
880.769	241
881.063	239
881.356	236
881.650	233
881.944	230
882.238	191
882.531	188
882.825	178
883.118	184
883.412	183
883.705	181
883.998	188
884.291	192
884.585	194
884.878	207
>>>>>>>>>> END of Data <<<<<<<<<<