Date	2021年06月15日火曜日 04時46分08秒
Spectrometers	USB2+H05879
ダーク	使用
リファレンス	使用
積分時間[msec]	10
平均回数	280
ｽﾑｰｼﾞﾝｸﾞ	10
Electrical Dark	USE
ピクセル数	2048
計測モード	吸光度
保存開始波長[nm]	190.664
保存終了波長[nm]	884.878
保存ﾋﾟｯﾁ波長[nm]	全波長

>>>>>>>>>> Data Start <<<<<<<<<<<<
190.664	0.000000
191.040	0.000000
191.415	0.000000
191.791	-2.180984
192.166	-0.584464
192.542	-0.840755
192.917	0.000000
193.293	-0.453247
193.668	-0.451674
194.044	-1.126494
194.419	0.000000
194.794	-1.369144
195.170	-1.292242
195.545	-1.213857
195.920	-1.093134
196.296	-0.977436
196.671	-0.821928
197.046	-0.675999
197.421	-0.625910
197.796	-0.626088
198.171	-0.593780
198.546	-0.545385
198.922	-0.493856
199.297	-0.478114
199.672	-0.451305
200.047	-0.419705
200.422	-0.392757
200.796	-0.389624
201.171	-0.369047
201.546	-0.368576
201.921	-0.357658
202.296	-0.347708
202.671	-0.324247
203.045	-0.299091
203.420	-0.284748
203.795	-0.267829
204.170	-0.260195
204.544	-0.254585
204.919	-0.249026
205.294	-0.245964
205.668	-0.226359
206.043	-0.205896
206.417	-0.204192
206.792	-0.197006
207.166	-0.183229
207.541	-0.177234
207.915	-0.187378
208.289	-0.177266
208.664	-0.167110
209.038	-0.167068
209.412	-0.154687
209.787	-0.143230
210.161	-0.126747
210.535	-0.131859
210.909	-0.119370
211.284	-0.117860
211.658	-0.127592
212.032	-0.124346
212.406	-0.128455
212.780	-0.132560
213.154	-0.131252
213.528	-0.132831
213.902	-0.128510
214.276	-0.125310
214.650	-0.125696
215.024	-0.131516
215.398	-0.128015
215.772	-0.118721
216.145	-0.111734
216.519	-0.110272
216.893	-0.109859
217.267	-0.110842
217.640	-0.120805
218.014	-0.116314
218.388	-0.100918
218.761	-0.111180
219.135	-0.098404
219.508	-0.096595
219.882	-0.111038
220.256	-0.106796
220.629	-0.101502
221.003	-0.102406
221.376	-0.101051
221.749	-0.107261
222.123	-0.108912
222.496	-0.115063
222.869	-0.110510
223.243	-0.112095
223.616	-0.114311
223.989	-0.127454
224.362	-0.127322
224.736	-0.131558
225.109	-0.133284
225.482	-0.125753
225.855	-0.130697
226.228	-0.140713
226.601	-0.135041
226.974	-0.133153
227.347	-0.118765
227.720	-0.108293
228.093	-0.111374
228.466	-0.109752
228.839	-0.108574
229.212	-0.113630
229.585	-0.126390
229.957	-0.121791
230.330	-0.117416
230.703	-0.105697
231.076	-0.103756
231.448	-0.108810
231.821	-0.103949
232.194	-0.098581
232.566	-0.094520
232.939	-0.100249
233.311	-0.106620
233.684	-0.104003
234.056	-0.106654
234.429	-0.112626
234.801	-0.111785
235.174	-0.117079
235.546	-0.120531
235.918	-0.126703
236.291	-0.127723
236.663	-0.123481
237.035	-0.115893
237.408	-0.104201
237.780	-0.098248
238.152	-0.096099
238.524	-0.110379
238.896	-0.108550
239.268	-0.100430
239.641	-0.101503
240.013	-0.092679
240.385	-0.085944
240.757	-0.081542
241.129	-0.081758
241.500	-0.080323
241.872	-0.070549
242.244	-0.065031
242.616	-0.068432
242.988	-0.068872
243.360	-0.057600
243.731	-0.040258
244.103	-0.043099
244.475	-0.046246
244.847	-0.045728
245.218	-0.040963
245.590	-0.037044
245.961	-0.036040
246.333	-0.026506
246.705	-0.032525
247.076	-0.033660
247.448	-0.029380
247.819	-0.038847
248.190	-0.033359
248.562	-0.036740
248.933	-0.030324
249.305	-0.033559
249.676	-0.031789
250.047	-0.031967
250.418	-0.039542
250.790	-0.037132
251.161	-0.041664
251.532	-0.044628
251.903	-0.041229
252.274	-0.032973
252.645	-0.029039
253.016	-0.033735
253.387	-0.044054
253.758	-0.043794
254.129	-0.043937
254.500	-0.031010
254.871	-0.030643
255.242	-0.029739
255.613	-0.028257
255.984	-0.034265
256.355	-0.026342
256.725	-0.025032
257.096	-0.017749
257.467	-0.018710
257.838	-0.021147
258.208	-0.010096
258.579	-0.008327
258.949	-0.005153
259.320	-0.003873
259.690	-0.000172
260.061	0.001623
260.431	0.002444
260.802	0.006904
261.172	0.010490
261.543	0.013458
261.913	0.006533
262.283	-0.005227
262.654	-0.010766
263.024	-0.018719
263.394	-0.010443
263.764	-0.007680
264.135	-0.006376
264.505	-0.009307
264.875	-0.007446
265.245	-0.007019
265.615	-0.007760
265.985	-0.009085
266.355	-0.007055
266.725	-0.014007
267.095	-0.017971
267.465	-0.017751
267.835	-0.020204
268.205	-0.029781
268.575	-0.027699
268.944	-0.028035
269.314	-0.032082
269.684	-0.025826
270.054	-0.025475
270.423	-0.017629
270.793	-0.009863
271.163	-0.016647
271.532	-0.026575
271.902	-0.026738
272.271	-0.018101
272.641	-0.020480
273.010	-0.023078
273.380	-0.021766
273.749	-0.022455
274.119	-0.020734
274.488	-0.012234
274.857	-0.009378
275.227	-0.007571
275.596	-0.011066
275.965	-0.001214
276.335	0.000353
276.704	-0.000030
277.073	0.001979
277.442	0.004127
277.811	0.011009
278.180	0.012231
278.549	0.011963
278.918	0.018615
279.287	0.030117
279.656	0.035364
280.025	0.025158
280.394	0.019129
280.763	0.020236
281.132	0.019795
281.501	0.022512
281.869	0.016094
282.238	0.016943
282.607	0.015626
282.976	0.013082
283.344	0.024496
283.713	0.019339
284.081	0.017386
284.450	0.023805
284.819	0.023758
285.187	0.028190
285.556	0.024226
285.924	0.021799
286.292	0.016591
286.661	0.007962
287.029	0.007989
287.398	0.008584
287.766	0.012252
288.134	0.019398
288.502	0.025347
288.871	0.033199
289.239	0.034569
289.607	0.042152
289.975	0.040259
290.343	0.044792
290.711	0.047525
291.079	0.038438
291.447	0.046307
291.815	0.044448
292.183	0.042171
292.551	0.045597
292.919	0.045638
293.287	0.053249
293.655	0.059194
294.022	0.060876
294.390	0.066398
294.758	0.069205
295.126	0.062633
295.493	0.068095
295.861	0.068589
296.229	0.066304
296.596	0.067810
296.964	0.070655
297.331	0.067519
297.699	0.069188
298.066	0.068553
298.434	0.069327
298.801	0.074683
299.168	0.070580
299.536	0.073671
299.903	0.076981
300.270	0.078771
300.638	0.085035
301.005	0.091416
301.372	0.096031
301.739	0.106043
302.106	0.115362
302.473	0.120441
302.840	0.136196
303.207	0.148274
303.574	0.164868
303.941	0.180255
304.308	0.185979
304.675	0.200458
305.042	0.218931
305.409	0.240902
305.776	0.259224
306.143	0.279699
306.509	0.303350
306.876	0.332972
307.243	0.360106
307.610	0.387452
307.976	0.415312
308.343	0.441420
308.709	0.472464
309.076	0.504226
309.442	0.534233
309.809	0.559254
310.175	0.592728
310.542	0.616881
310.908	0.641632
311.275	0.667428
311.641	0.695196
312.007	0.729953
312.373	0.756751
312.740	0.785963
313.106	0.812869
313.472	0.846113
313.838	0.879267
314.204	0.906168
314.570	0.932228
314.936	0.959566
315.302	0.985668
315.668	1.008219
316.034	1.035158
316.400	1.062065
316.766	1.082060
317.132	1.112528
317.498	1.135751
317.864	1.153417
318.230	1.177620
318.595	1.202648
318.961	1.225676
319.327	1.245940
319.692	1.263753
320.058	1.275670
320.424	1.296462
320.789	1.316450
321.155	1.331967
321.520	1.344493
321.886	1.365748
322.251	1.376858
322.616	1.391756
322.982	1.404464
323.347	1.418774
323.712	1.433685
324.078	1.443645
324.443	1.457793
324.808	1.465473
325.173	1.479756
325.539	1.491616
325.904	1.499620
326.269	1.507650
326.634	1.512775
326.999	1.526731
327.364	1.532600
327.729	1.545066
328.094	1.552356
328.459	1.559073
328.823	1.568313
329.188	1.577814
329.553	1.580343
329.918	1.590178
330.283	1.596620
330.647	1.605432
331.012	1.611716
331.377	1.616202
331.741	1.621285
332.106	1.628028
332.470	1.632824
332.835	1.638202
333.199	1.643661
333.564	1.653799
333.928	1.660980
334.293	1.666056
334.657	1.667080
335.021	1.676685
335.386	1.682870
335.750	1.684309
336.114	1.688341
336.478	1.692813
336.843	1.696717
337.207	1.699467
337.571	1.703164
337.935	1.706182
338.299	1.707142
338.663	1.709425
339.027	1.712194
339.391	1.713685
339.755	1.714807
340.119	1.717094
340.483	1.718175
340.846	1.722915
341.210	1.724631
341.574	1.725816
341.938	1.729916
342.301	1.730387
342.665	1.731536
343.029	1.730851
343.392	1.733679
343.756	1.734385
344.119	1.734485
344.483	1.737258
344.846	1.740145
345.210	1.742181
345.573	1.744059
345.937	1.745022
346.300	1.747252
346.663	1.749748
347.027	1.754153
347.390	1.755826
347.753	1.757863
348.116	1.759357
348.479	1.760541
348.843	1.760334
349.206	1.760527
349.569	1.759599
349.932	1.763027
350.295	1.763805
350.658	1.767306
351.021	1.769991
351.383	1.772919
351.746	1.773292
352.109	1.772038
352.472	1.772771
352.835	1.775263
353.197	1.778071
353.560	1.780790
353.923	1.780048
354.285	1.780986
354.648	1.780345
355.011	1.780246
355.373	1.781979
355.736	1.784536
356.098	1.784820
356.461	1.786659
356.823	1.788102
357.185	1.793193
357.548	1.794317
357.910	1.795899
358.272	1.795456
358.635	1.794466
358.997	1.794219
359.359	1.798423
359.721	1.799169
360.083	1.801075
360.445	1.801765
360.807	1.802590
361.169	1.802307
361.531	1.804918
361.893	1.806633
362.255	1.809065
362.617	1.811429
362.979	1.811781
363.341	1.811163
363.703	1.812979
364.064	1.813384
364.426	1.814859
364.788	1.813052
365.149	1.813982
365.511	1.815368
365.873	1.817494
366.234	1.818683
366.596	1.820047
366.957	1.820580
367.319	1.822926
367.680	1.822530
368.042	1.822066
368.403	1.822348
368.764	1.824421
369.126	1.824877
369.487	1.824602
369.848	1.825126
370.209	1.827974
370.570	1.828162
370.931	1.829096
371.293	1.829075
371.654	1.830792
372.015	1.832745
372.376	1.835088
372.737	1.836730
373.098	1.836189
373.458	1.837489
373.819	1.840927
374.180	1.844074
374.541	1.844082
374.902	1.845029
375.263	1.847629
375.623	1.848755
375.984	1.852186
376.345	1.854076
376.705	1.854645
377.066	1.857354
377.426	1.858961
377.787	1.857705
378.147	1.860996
378.508	1.862116
378.868	1.863153
379.228	1.862486
379.589	1.862148
379.949	1.862787
380.309	1.863507
380.670	1.864896
381.030	1.864123
381.390	1.863267
381.750	1.860998
382.110	1.861141
382.470	1.863468
382.830	1.863550
383.190	1.864883
383.550	1.861697
383.910	1.861487
384.270	1.862865
384.630	1.862379
384.990	1.861857
385.350	1.862275
385.709	1.860635
386.069	1.861646
386.429	1.861588
386.788	1.862636
387.148	1.863525
387.508	1.864437
387.867	1.864073
388.227	1.863871
388.586	1.865494
388.946	1.868015
389.305	1.869425
389.665	1.870569
390.024	1.869810
390.383	1.870775
390.743	1.869807
391.102	1.870495
391.461	1.871471
391.820	1.872681
392.179	1.871996
392.539	1.871764
392.898	1.874091
393.257	1.874491
393.616	1.876397
393.975	1.876645
394.334	1.878172
394.693	1.878995
395.051	1.878586
395.410	1.879030
395.769	1.879641
396.128	1.880714
396.487	1.878725
396.845	1.877332
397.204	1.876496
397.563	1.874607
397.921	1.873435
398.280	1.872366
398.638	1.870994
398.997	1.868943
399.355	1.866028
399.714	1.864942
400.072	1.862799
400.431	1.860568
400.789	1.858856
401.147	1.856718
401.506	1.854281
401.864	1.851829
402.222	1.849138
402.580	1.846145
402.938	1.845169
403.297	1.843106
403.655	1.839211
404.013	1.837751
404.371	1.836894
404.729	1.833485
405.087	1.831621
405.444	1.829659
405.802	1.828901
406.160	1.829228
406.518	1.827165
406.876	1.826030
407.233	1.825340
407.591	1.824690
407.949	1.822383
408.306	1.820562
408.664	1.818756
409.022	1.818684
409.379	1.816442
409.737	1.814709
410.094	1.813142
410.451	1.810036
410.809	1.808869
411.166	1.806926
411.523	1.805908
411.881	1.804019
412.238	1.803089
412.595	1.801635
412.952	1.799357
413.310	1.796400
413.667	1.793666
414.024	1.792487
414.381	1.790323
414.738	1.786759
415.095	1.783317
415.452	1.780802
415.809	1.779200
416.165	1.776660
416.522	1.773578
416.879	1.771033
417.236	1.767748
417.593	1.763756
417.949	1.760233
418.306	1.756505
418.663	1.755357
419.019	1.751102
419.376	1.748228
419.732	1.745000
420.089	1.741877
420.445	1.740334
420.802	1.738291
421.158	1.734249
421.514	1.729996
421.871	1.726498
422.227	1.723229
422.583	1.720980
422.939	1.716809
423.295	1.713096
423.652	1.709476
424.008	1.704753
424.364	1.700791
424.720	1.697358
425.076	1.695314
425.432	1.692601
425.788	1.689795
426.143	1.685235
426.499	1.681049
426.855	1.677440
427.211	1.674328
427.567	1.669826
427.922	1.665391
428.278	1.659109
428.634	1.655128
428.989	1.651867
429.345	1.648326
429.700	1.644711
430.056	1.641262
430.411	1.638492
430.767	1.634544
431.122	1.629837
431.478	1.626398
431.833	1.622558
432.188	1.617833
432.543	1.613036
432.899	1.607478
433.254	1.601198
433.609	1.595347
433.964	1.591142
434.319	1.584743
434.674	1.578851
435.029	1.574603
435.384	1.568504
435.739	1.564662
436.094	1.559660
436.449	1.554842
436.804	1.549624
437.158	1.544782
437.513	1.539679
437.868	1.533754
438.223	1.528840
438.577	1.523480
438.932	1.518984
439.287	1.513673
439.641	1.508703
439.996	1.503651
440.350	1.498763
440.704	1.494694
441.059	1.489796
441.413	1.484434
441.768	1.479900
442.122	1.475349
442.476	1.469851
442.830	1.465486
443.185	1.460458
443.539	1.455639
443.893	1.450495
444.247	1.445555
444.601	1.440088
444.955	1.434365
445.309	1.429296
445.663	1.423779
446.017	1.418620
446.371	1.412441
446.724	1.406742
447.078	1.401421
447.432	1.395777
447.786	1.390332
448.139	1.384103
448.493	1.379185
448.847	1.373575
449.200	1.368122
449.554	1.362928
449.907	1.357541
450.261	1.351424
450.614	1.345854
450.968	1.340389
451.321	1.334713
451.674	1.329055
452.027	1.323572
452.381	1.318085
452.734	1.312143
453.087	1.306743
453.440	1.300874
453.793	1.295373
454.146	1.289748
454.499	1.284380
454.852	1.278727
455.205	1.273327
455.558	1.268471
455.911	1.263077
456.264	1.258205
456.617	1.253174
456.970	1.248042
457.322	1.243506
457.675	1.239465
458.028	1.235293
458.380	1.230975
458.733	1.226626
459.086	1.222580
459.438	1.218311
459.791	1.213791
460.143	1.209748
460.496	1.205313
460.848	1.200745
461.200	1.196421
461.553	1.192117
461.905	1.187873
462.257	1.183580
462.609	1.179558
462.961	1.175264
463.314	1.171234
463.666	1.166876
464.018	1.162704
464.370	1.159001
464.722	1.154929
465.074	1.150521
465.426	1.146855
465.777	1.143281
466.129	1.139697
466.481	1.135708
466.833	1.132241
467.184	1.129161
467.536	1.125420
467.888	1.121682
468.239	1.118333
468.591	1.114319
468.943	1.110301
469.294	1.106039
469.646	1.101768
469.997	1.097289
470.348	1.093371
470.700	1.089346
471.051	1.085635
471.402	1.081797
471.754	1.077995
472.105	1.074638
472.456	1.071744
472.807	1.068125
473.158	1.064691
473.509	1.061747
473.860	1.058831
474.211	1.055876
474.562	1.052584
474.913	1.049737
475.264	1.046807
475.615	1.043676
475.966	1.040759
476.316	1.037790
476.667	1.034881
477.018	1.032337
477.368	1.029527
477.719	1.026703
478.070	1.023885
478.420	1.021114
478.771	1.018452
479.121	1.015678
479.472	1.012920
479.822	1.010007
480.172	1.007225
480.523	1.004520
480.873	1.001412
481.223	0.997750
481.573	0.994126
481.924	0.990680
482.274	0.987136
482.624	0.984032
482.974	0.981415
483.324	0.979201
483.674	0.977310
484.024	0.975483
484.374	0.973591
484.724	0.971821
485.073	0.969940
485.423	0.968212
485.773	0.966431
486.123	0.964585
486.472	0.962686
486.822	0.960858
487.172	0.959114
487.521	0.957336
487.871	0.955433
488.220	0.953495
488.570	0.951514
488.919	0.949074
489.268	0.946248
489.618	0.943269
489.967	0.939664
490.316	0.935596
490.666	0.931235
491.015	0.927011
491.364	0.923151
491.713	0.919630
492.062	0.916477
492.411	0.913459
492.760	0.910514
493.109	0.907510
493.458	0.904531
493.807	0.901744
494.156	0.898796
494.505	0.895716
494.853	0.892771
495.202	0.889826
495.551	0.886900
495.900	0.884004
496.248	0.881110
496.597	0.878223
496.945	0.875341
497.294	0.872629
497.642	0.869765
497.991	0.866889
498.339	0.864001
498.688	0.861268
499.036	0.858602
499.384	0.855839
499.732	0.853026
500.081	0.850203
500.429	0.847466
500.777	0.844919
501.125	0.842253
501.473	0.839653
501.821	0.837161
502.169	0.834689
502.517	0.832178
502.865	0.829758
503.213	0.827346
503.561	0.824891
503.908	0.822501
504.256	0.819981
504.604	0.817415
504.952	0.814890
505.299	0.812446
505.647	0.810057
505.994	0.807484
506.342	0.804940
506.689	0.802495
507.037	0.800120
507.384	0.797598
507.732	0.795224
508.079	0.792858
508.426	0.790534
508.774	0.788214
509.121	0.785916
509.468	0.783670
509.815	0.781440
510.162	0.779077
510.509	0.776819
510.856	0.774642
511.203	0.772348
511.550	0.770215
511.897	0.768094
512.244	0.766040
512.591	0.763783
512.938	0.761572
513.284	0.759383
513.631	0.757326
513.978	0.755053
514.324	0.752943
514.671	0.750853
515.018	0.748645
515.364	0.746400
515.711	0.744218
516.057	0.741966
516.403	0.739789
516.750	0.737638
517.096	0.735509
517.443	0.733369
517.789	0.731297
518.135	0.729147
518.481	0.727120
518.827	0.724972
519.173	0.722900
519.519	0.720747
519.865	0.718753
520.211	0.716730
520.557	0.714748
520.903	0.712493
521.249	0.710489
521.595	0.708349
521.941	0.706126
522.287	0.703893
522.632	0.701700
522.978	0.699454
523.324	0.697288
523.669	0.694998
524.015	0.692630
524.360	0.690336
524.706	0.688142
525.051	0.685963
525.397	0.683748
525.742	0.681478
526.087	0.679256
526.433	0.677034
526.778	0.674988
527.123	0.672921
527.468	0.670631
527.813	0.668475
528.158	0.666294
528.504	0.664091
528.849	0.661689
529.193	0.659507
529.538	0.657180
529.883	0.654712
530.228	0.652173
530.573	0.649812
530.918	0.647464
531.263	0.645169
531.607	0.642827
531.952	0.640531
532.296	0.638165
532.641	0.635856
532.986	0.633500
533.330	0.631180
533.675	0.628867
534.019	0.626416
534.363	0.623882
534.708	0.621550
535.052	0.619158
535.396	0.616819
535.741	0.614444
536.085	0.612123
536.429	0.609626
536.773	0.607245
537.117	0.604770
537.461	0.602226
537.805	0.599500
538.149	0.596742
538.493	0.593883
538.837	0.591189
539.181	0.588415
539.524	0.585518
539.868	0.582702
540.212	0.579931
540.556	0.577150
540.899	0.574349
541.243	0.571583
541.586	0.568841
541.930	0.565993
542.273	0.563115
542.617	0.560194
542.960	0.557196
543.304	0.554148
543.647	0.551102
543.990	0.547964
544.333	0.544869
544.677	0.541839
545.020	0.538849
545.363	0.535847
545.706	0.532882
546.049	0.529801
546.392	0.526793
546.735	0.523855
547.078	0.520820
547.421	0.517753
547.764	0.514527
548.106	0.511219
548.449	0.507813
548.792	0.504462
549.135	0.501134
549.477	0.497784
549.820	0.494566
550.162	0.491384
550.505	0.488147
550.847	0.484845
551.190	0.481403
551.532	0.477883
551.875	0.474196
552.217	0.470444
552.559	0.466799
552.901	0.463154
553.244	0.459725
553.586	0.456313
553.928	0.453001
554.270	0.449786
554.612	0.446589
554.954	0.443398
555.296	0.440203
555.638	0.436946
555.980	0.433445
556.322	0.429819
556.663	0.426043
557.005	0.422187
557.347	0.418384
557.689	0.414723
558.030	0.411118
558.372	0.407518
558.713	0.403968
559.055	0.400464
559.396	0.396955
559.738	0.393310
560.079	0.389753
560.421	0.386180
560.762	0.382663
561.103	0.379133
561.444	0.375642
561.786	0.372224
562.127	0.368942
562.468	0.365556
562.809	0.362134
563.150	0.358648
563.491	0.355053
563.832	0.351378
564.173	0.347624
564.514	0.343751
564.855	0.339705
565.195	0.335644
565.536	0.331614
565.877	0.327650
566.218	0.323794
566.558	0.320040
566.899	0.316498
567.239	0.313113
567.580	0.309967
567.920	0.307053
568.261	0.304454
568.601	0.301982
568.941	0.299626
569.282	0.297344
569.622	0.295102
569.962	0.292884
570.302	0.290665
570.643	0.288593
570.983	0.286625
571.323	0.284723
571.663	0.282878
572.003	0.281049
572.343	0.279203
572.683	0.277271
573.022	0.275252
573.362	0.273120
573.702	0.271008
574.042	0.268929
574.381	0.266922
574.721	0.264949
575.061	0.263077
575.400	0.261295
575.740	0.259550
576.079	0.257823
576.419	0.256006
576.758	0.254110
577.097	0.252127
577.437	0.250090
577.776	0.247971
578.115	0.245887
578.454	0.243921
578.794	0.242182
579.133	0.240648
579.472	0.239245
579.811	0.237947
580.150	0.236660
580.489	0.235345
580.828	0.233914
581.167	0.232436
581.505	0.230938
581.844	0.229445
582.183	0.227928
582.522	0.226458
582.860	0.225028
583.199	0.223659
583.538	0.222373
583.876	0.221126
584.215	0.219910
584.553	0.218696
584.891	0.217516
585.230	0.216289
585.568	0.215017
585.906	0.213632
586.245	0.212230
586.583	0.210872
586.921	0.209644
587.259	0.208548
587.597	0.207532
587.935	0.206481
588.273	0.205298
588.611	0.203967
588.949	0.202548
589.287	0.201104
589.625	0.199603
589.963	0.198192
590.300	0.196869
590.638	0.195628
590.976	0.194446
591.313	0.193230
591.651	0.192002
591.989	0.190795
592.326	0.189662
592.664	0.188629
593.001	0.187618
593.338	0.186693
593.676	0.185866
594.013	0.185025
594.350	0.184170
594.687	0.183371
595.025	0.182632
595.362	0.181878
595.699	0.181108
596.036	0.180334
596.373	0.179556
596.710	0.178750
597.047	0.177918
597.384	0.177054
597.720	0.176185
598.057	0.175314
598.394	0.174437
598.731	0.173609
599.067	0.172735
599.404	0.171842
599.741	0.170954
600.077	0.170147
600.414	0.169393
600.750	0.168709
601.087	0.168062
601.423	0.167434
601.759	0.166759
602.096	0.166085
602.432	0.165466
602.768	0.164804
603.104	0.164131
603.440	0.163443
603.776	0.162804
604.112	0.162164
604.448	0.161569
604.784	0.160987
605.120	0.160399
605.456	0.159879
605.792	0.159306
606.128	0.158747
606.463	0.158223
606.799	0.157651
607.135	0.157080
607.470	0.156523
607.806	0.155917
608.142	0.155335
608.477	0.154760
608.812	0.154201
609.148	0.153647
609.483	0.153086
609.819	0.152571
610.154	0.152033
610.489	0.151467
610.824	0.150898
611.159	0.150338
611.494	0.149757
611.830	0.149272
612.165	0.148839
612.500	0.148389
612.834	0.147994
613.169	0.147602
613.504	0.147145
613.839	0.146706
614.174	0.146234
614.509	0.145757
614.843	0.145283
615.178	0.144808
615.512	0.144384
615.847	0.143970
616.182	0.143612
616.516	0.143253
616.850	0.142886
617.185	0.142508
617.519	0.142132
617.853	0.141783
618.188	0.141335
618.522	0.140833
618.856	0.140278
619.190	0.139704
619.524	0.139143
619.858	0.138643
620.192	0.138186
620.526	0.137768
620.860	0.137398
621.194	0.137007
621.528	0.136582
621.862	0.136178
622.195	0.135846
622.529	0.135427
622.863	0.135053
623.196	0.134617
623.530	0.134290
623.864	0.133885
624.197	0.133545
624.530	0.133157
624.864	0.132802
625.197	0.132494
625.531	0.132210
625.864	0.131863
626.197	0.131531
626.530	0.131225
626.863	0.130819
627.196	0.130378
627.529	0.129997
627.862	0.129540
628.195	0.129127
628.528	0.128722
628.861	0.128321
629.194	0.127873
629.527	0.127471
629.860	0.127118
630.192	0.126698
630.525	0.126165
630.858	0.125737
631.190	0.125287
631.523	0.124892
631.855	0.124297
632.188	0.123829
632.520	0.123388
632.852	0.122981
633.185	0.122555
633.517	0.122143
633.849	0.121766
634.182	0.121482
634.514	0.121201
634.846	0.120934
635.178	0.120682
635.510	0.120414
635.842	0.120131
636.174	0.119909
636.506	0.119715
636.837	0.119366
637.169	0.119124
637.501	0.118865
637.833	0.118688
638.164	0.118413
638.496	0.118091
638.828	0.117780
639.159	0.117465
639.491	0.117092
639.822	0.116699
640.154	0.116274
640.485	0.115786
640.816	0.115274
641.147	0.114799
641.479	0.114183
641.810	0.113701
642.141	0.113216
642.472	0.112772
642.803	0.112359
643.134	0.111894
643.465	0.111344
643.796	0.110967
644.127	0.110552
644.458	0.110175
644.789	0.109760
645.119	0.109593
645.450	0.109579
645.781	0.109722
646.111	0.109860
646.442	0.110067
646.773	0.110159
647.103	0.110256
647.433	0.110281
647.764	0.110275
648.094	0.110118
648.425	0.110148
648.755	0.110114
649.085	0.110030
649.415	0.109985
649.745	0.110064
650.075	0.110143
650.405	0.110153
650.735	0.108646
651.065	0.099769
651.395	0.092048
651.725	0.080187
652.055	0.054802
652.385	0.040343
652.715	0.030992
653.044	0.024453
653.374	0.019640
653.704	0.015974
654.033	0.021294
654.363	0.026577
654.692	0.029585
655.022	0.031353
655.351	0.032403
655.680	0.033030
656.010	0.033354
656.339	0.033492
656.668	0.033514
656.997	0.033472
657.326	0.033399
657.655	0.033325
657.984	0.032947
658.313	0.030433
658.642	0.027585
658.971	0.032114
659.300	0.037889
659.629	0.045515
659.958	0.056028
660.286	0.071477
660.615	0.096407
660.944	0.105559
661.272	0.103806
661.601	0.102945
661.929	0.102603
662.258	0.102821
662.586	0.102920
662.915	0.103096
663.243	0.102993
663.571	0.102688
663.899	0.102485
664.228	0.102154
664.556	0.101991
664.884	0.101772
665.212	0.101593
665.540	0.101464
665.868	0.101366
666.196	0.101222
666.524	0.101077
666.852	0.100971
667.179	0.100880
667.507	0.100784
667.835	0.100710
668.162	0.100545
668.490	0.100427
668.818	0.100381
669.145	0.100464
669.473	0.100607
669.800	0.100746
670.127	0.100828
670.455	0.100902
670.782	0.100933
671.109	0.100958
671.436	0.101047
671.764	0.101116
672.091	0.101170
672.418	0.101229
672.745	0.101251
673.072	0.101251
673.399	0.101206
673.726	0.101095
674.053	0.100996
674.379	0.100952
674.706	0.100933
675.033	0.100752
675.359	0.100604
675.686	0.100545
676.013	0.100388
676.339	0.100195
676.666	0.099928
676.992	0.099851
677.318	0.099717
677.645	0.099601
677.971	0.099580
678.297	0.099496
678.624	0.099411
678.950	0.099285
679.276	0.099175
679.602	0.098987
679.928	0.098807
680.254	0.098615
680.580	0.098474
680.906	0.098377
681.232	0.098289
681.558	0.098249
681.883	0.098339
682.209	0.098460
682.535	0.098458
682.860	0.098529
683.186	0.098573
683.511	0.098578
683.837	0.098426
684.162	0.098342
684.488	0.098260
684.813	0.098162
685.138	0.098015
685.464	0.097911
685.789	0.097805
686.114	0.097603
686.439	0.097535
686.764	0.097486
687.089	0.097430
687.414	0.097400
687.739	0.097347
688.064	0.097288
688.389	0.097181
688.714	0.097040
689.039	0.096836
689.363	0.096701
689.688	0.096496
690.013	0.096238
690.337	0.096106
690.662	0.096000
690.986	0.095901
691.311	0.095796
691.635	0.095656
691.959	0.095486
692.284	0.095281
692.608	0.095045
692.932	0.094918
693.256	0.094758
693.580	0.094726
693.904	0.094683
694.228	0.094723
694.552	0.094717
694.876	0.094692
695.200	0.094569
695.524	0.094422
695.848	0.094187
696.172	0.093927
696.495	0.093621
696.819	0.093400
697.143	0.093040
697.466	0.092755
697.790	0.092467
698.113	0.092169
698.437	0.091875
698.760	0.091636
699.083	0.091460
699.407	0.091327
699.730	0.091223
700.053	0.091185
700.376	0.090986
700.699	0.090699
701.022	0.090267
701.345	0.089757
701.668	0.089120
701.991	0.088538
702.314	0.087773
702.637	0.087160
702.960	0.086531
703.283	0.086103
703.605	0.085519
703.928	0.085256
704.251	0.085118
704.573	0.084931
704.896	0.084832
705.218	0.084666
705.540	0.084522
705.863	0.084249
706.185	0.083971
706.507	0.083511
706.830	0.082969
707.152	0.082418
707.474	0.081919
707.796	0.081455
708.118	0.081053
708.440	0.080783
708.762	0.080549
709.084	0.080441
709.406	0.080217
709.728	0.080069
710.049	0.079771
710.371	0.079646
710.693	0.079355
711.014	0.078916
711.336	0.078618
711.658	0.078319
711.979	0.078028
712.301	0.077720
712.622	0.077570
712.943	0.077323
713.265	0.077162
713.586	0.076976
713.907	0.076853
714.228	0.076832
714.549	0.076777
714.870	0.076732
715.191	0.076646
715.512	0.076546
715.833	0.076472
716.154	0.076342
716.475	0.076188
716.796	0.076042
717.117	0.075708
717.437	0.075389
717.758	0.075012
718.078	0.074532
718.399	0.074032
718.719	0.073581
719.040	0.073214
719.360	0.072822
719.681	0.072533
720.001	0.072303
720.321	0.072177
720.642	0.071922
720.962	0.071617
721.282	0.071403
721.602	0.071163
721.922	0.070906
722.242	0.070674
722.562	0.070439
722.882	0.070324
723.202	0.070193
723.521	0.070030
723.841	0.069968
724.161	0.069809
724.481	0.069754
724.800	0.069637
725.120	0.069481
725.439	0.069403
725.759	0.069224
726.078	0.069138
726.398	0.068983
726.717	0.068951
727.036	0.068835
727.355	0.068939
727.675	0.069017
727.994	0.069115
728.313	0.069160
728.632	0.069221
728.951	0.069244
729.270	0.069162
729.589	0.068992
729.908	0.068745
730.226	0.068455
730.545	0.068223
730.864	0.067978
731.182	0.067770
731.501	0.067579
731.820	0.067489
732.138	0.067372
732.457	0.067205
732.775	0.067018
733.093	0.066939
733.412	0.066751
733.730	0.066604
734.048	0.066356
734.367	0.066027
734.685	0.065690
735.003	0.065283
735.321	0.064930
735.639	0.064567
735.957	0.064280
736.275	0.064055
736.593	0.063949
736.910	0.063846
737.228	0.063713
737.546	0.063614
737.863	0.063479
738.181	0.063260
738.499	0.062969
738.816	0.062723
739.134	0.062451
739.451	0.062199
739.768	0.061924
740.086	0.061703
740.403	0.061398
740.720	0.061049
741.038	0.060790
741.355	0.060462
741.672	0.060154
741.989	0.059782
742.306	0.059458
742.623	0.059059
742.940	0.058569
743.257	0.057949
743.573	0.057446
743.890	0.056869
744.207	0.056313
744.523	0.055838
744.840	0.055465
745.157	0.055098
745.473	0.054643
745.790	0.054380
746.106	0.054080
746.422	0.053786
746.739	0.053423
747.055	0.053204
747.371	0.053029
747.687	0.052914
748.004	0.052841
748.320	0.052812
748.636	0.052756
748.952	0.052686
749.268	0.052751
749.584	0.052835
749.899	0.052844
750.215	0.052828
750.531	0.052834
750.847	0.052873
751.162	0.052859
751.478	0.052886
751.793	0.052837
752.109	0.052718
752.424	0.052670
752.740	0.052584
753.055	0.052528
753.370	0.052547
753.686	0.052688
754.001	0.052950
754.316	0.053181
754.631	0.053351
754.946	0.053508
755.261	0.053621
755.576	0.053709
755.891	0.053662
756.206	0.053575
756.521	0.053492
756.836	0.053457
757.150	0.053475
757.465	0.053474
757.780	0.053501
758.094	0.053555
758.409	0.053651
758.723	0.053816
759.038	0.053871
759.352	0.053941
759.667	0.053914
759.981	0.053821
760.295	0.053583
760.609	0.053329
760.923	0.053098
761.238	0.052860
761.552	0.052679
761.866	0.052557
762.180	0.052492
762.493	0.052479
762.807	0.052444
763.121	0.052438
763.435	0.052340
763.749	0.052139
764.062	0.051915
764.376	0.051653
764.689	0.051391
765.003	0.051093
765.316	0.050887
765.630	0.050859
765.943	0.050716
766.257	0.050708
766.570	0.050657
766.883	0.050581
767.196	0.050380
767.509	0.050110
767.822	0.049859
768.135	0.049548
768.448	0.049280
768.761	0.048931
769.074	0.048658
769.387	0.048408
769.700	0.048190
770.013	0.047986
770.325	0.047841
770.638	0.047821
770.950	0.047722
771.263	0.047593
771.575	0.047457
771.888	0.047174
772.200	0.046825
772.513	0.046498
772.825	0.046120
773.137	0.045809
773.449	0.045581
773.761	0.045318
774.074	0.045092
774.386	0.044856
774.698	0.044715
775.010	0.044418
775.321	0.044101
775.633	0.043803
775.945	0.043641
776.257	0.043495
776.568	0.043433
776.880	0.043392
777.192	0.043248
777.503	0.043183
777.815	0.043220
778.126	0.043297
778.438	0.043492
778.749	0.043689
779.060	0.043890
779.372	0.044010
779.683	0.044153
779.994	0.044247
780.305	0.044377
780.616	0.044574
780.927	0.044745
781.238	0.044815
781.549	0.044940
781.860	0.045118
782.171	0.045190
782.481	0.045246
782.792	0.045270
783.103	0.045366
783.413	0.045434
783.724	0.045402
784.034	0.045493
784.345	0.045418
784.655	0.045363
784.966	0.045265
785.276	0.045190
785.586	0.045122
785.896	0.045038
786.207	0.044971
786.517	0.045023
786.827	0.045109
787.137	0.045085
787.447	0.045002
787.757	0.045068
788.066	0.045120
788.376	0.045143
788.686	0.045210
788.996	0.045296
789.305	0.045334
789.615	0.045298
789.925	0.045288
790.234	0.045353
790.544	0.045463
790.853	0.045630
791.162	0.045802
791.472	0.046035
791.781	0.046130
792.090	0.046319
792.399	0.046446
792.708	0.046493
793.017	0.046439
793.326	0.046305
793.635	0.046159
793.944	0.046112
794.253	0.045906
794.562	0.045727
794.871	0.045660
795.179	0.045557
795.488	0.045440
795.797	0.045474
796.105	0.045452
796.414	0.045456
796.722	0.045478
797.031	0.045283
797.339	0.045128
797.647	0.044849
797.956	0.044485
798.264	0.044145
798.572	0.043743
798.880	0.043434
799.188	0.043194
799.496	0.042928
799.804	0.042738
800.112	0.042597
800.420	0.042518
800.728	0.042528
801.035	0.042530
801.343	0.042247
801.651	0.041991
801.958	0.041839
802.266	0.041635
802.573	0.041786
802.881	0.041851
803.188	0.042026
803.496	0.042290
803.803	0.042552
804.110	0.042877
804.417	0.042958
804.724	0.043078
805.032	0.043119
805.339	0.043212
805.646	0.043055
805.953	0.043009
806.259	0.043051
806.566	0.043002
806.873	0.042987
807.180	0.043022
807.486	0.043037
807.793	0.043242
808.100	0.043386
808.406	0.043501
808.713	0.043511
809.019	0.043199
809.326	0.042968
809.632	0.042584
809.938	0.042138
810.244	0.041740
810.551	0.041245
810.857	0.040979
811.163	0.040740
811.469	0.040499
811.775	0.040439
812.081	0.040517
812.387	0.040555
812.692	0.040456
812.998	0.040674
813.304	0.040647
813.610	0.040899
813.915	0.040883
814.221	0.040910
814.526	0.040868
814.832	0.040960
815.137	0.041076
815.443	0.041094
815.748	0.041093
816.053	0.041056
816.358	0.041017
816.664	0.040997
816.969	0.041013
817.274	0.041191
817.579	0.041177
817.884	0.041322
818.189	0.041271
818.493	0.041322
818.798	0.041307
819.103	0.041329
819.408	0.041001
819.712	0.040919
820.017	0.040522
820.321	0.040365
820.626	0.040215
820.930	0.040106
821.235	0.039919
821.539	0.039716
821.843	0.039721
822.148	0.039706
822.452	0.039835
822.756	0.040114
823.060	0.040081
823.364	0.040511
823.668	0.040530
823.972	0.040666
824.276	0.040636
824.580	0.040606
824.883	0.040661
825.187	0.040800
825.491	0.040992
825.795	0.041083
826.098	0.041228
826.402	0.041285
826.705	0.041528
827.008	0.041347
827.312	0.041336
827.615	0.041078
827.918	0.040844
828.222	0.040549
828.525	0.040292
828.828	0.040284
829.131	0.040165
829.434	0.040197
829.737	0.039558
830.040	0.039172
830.343	0.038655
830.645	0.038491
830.948	0.038262
831.251	0.038099
831.553	0.037905
831.856	0.037674
832.159	0.037857
832.461	0.037731
832.764	0.037588
833.066	0.037110
833.368	0.037143
833.671	0.036875
833.973	0.036796
834.275	0.036774
834.577	0.036840
834.879	0.036799
835.181	0.036428
835.483	0.036108
835.785	0.035670
836.087	0.035413
836.389	0.034906
836.690	0.034339
836.992	0.033559
837.294	0.032703
837.595	0.031714
837.897	0.030949
838.198	0.029876
838.500	0.028942
838.801	0.028090
839.103	0.027627
839.404	0.027427
839.705	0.026672
840.006	0.026370
840.307	0.026202
840.608	0.026039
840.910	0.025883
841.210	0.026298
841.511	0.026487
841.812	0.026529
842.113	0.026713
842.414	0.026044
842.715	0.025673
843.015	0.025252
843.316	0.025128
843.616	0.024757
843.917	0.024583
844.217	0.024106
844.518	0.024571
844.818	0.024275
845.118	0.024284
845.419	0.024214
845.719	0.023846
846.019	0.023815
846.319	0.024406
846.619	0.024076
846.919	0.024307
847.219	0.024524
847.519	0.024181
847.819	0.024080
848.118	0.023028
848.418	0.022537
848.718	0.022298
849.017	0.022377
849.317	0.022641
849.616	0.022878
849.916	0.023689
850.215	0.024427
850.515	0.024777
850.814	0.025164
851.113	0.026002
851.412	0.026317
851.712	0.026313
852.011	0.026384
852.310	0.026850
852.609	0.026872
852.908	0.027136
853.206	0.027156
853.505	0.027360
853.804	0.027442
854.103	0.027528
854.401	0.027925
854.700	0.027884
854.999	0.028152
855.297	0.028216
855.595	0.028421
855.894	0.028481
856.192	0.028350
856.491	0.028072
856.789	0.028000
857.087	0.027598
857.385	0.026651
857.683	0.026284
857.981	0.026203
858.279	0.025887
858.577	0.025135
858.875	0.024470
859.173	0.023637
859.471	0.023371
859.768	0.022729
860.066	0.022177
860.363	0.021200
860.661	0.020294
860.959	0.020282
861.256	0.020154
861.553	0.020190
861.851	0.019649
862.148	0.018625
862.445	0.018190
862.742	0.017825
863.039	0.016904
863.337	0.016288
863.634	0.016171
863.931	0.015965
864.227	0.015668
864.524	0.015389
864.821	0.015121
865.118	0.014861
865.415	0.014965
865.711	0.014177
866.008	0.013097
866.304	0.012693
866.601	0.012701
866.897	0.012443
867.194	0.012108
867.490	0.012108
867.786	0.011798
868.082	0.011423
868.379	0.011329
868.675	0.011350
868.971	0.011057
869.267	0.011884
869.563	0.012594
869.859	0.012346
870.154	0.011850
870.450	0.011983
870.746	0.011256
871.042	0.011543
871.337	0.011070
871.633	0.010804
871.928	0.011004
872.224	0.011209
872.519	0.010501
872.815	0.010236
873.110	0.010144
873.405	0.009717
873.700	0.009297
873.995	0.008839
874.291	0.009195
874.586	0.010151
874.881	0.009419
875.175	0.009391
875.470	0.008864
875.765	0.008369
876.060	0.008634
876.355	0.008539
876.649	0.008285
876.944	0.008995
877.238	0.008870
877.533	0.009417
877.827	0.009643
878.122	0.009940
878.416	0.010254
878.710	0.010984
879.005	0.010912
879.299	0.010780
879.593	0.010671
879.887	0.010442
880.181	0.010553
880.475	0.010717
880.769	0.010118
881.063	0.010476
881.356	0.010575
881.650	0.010506
881.944	0.010034
882.238	0.001321
882.531	0.006984
882.825	0.003333
883.118	0.006795
883.412	0.015826
883.705	0.003180
883.998	0.009613
884.291	0.011585
884.585	0.007214
884.878	0.000191
>>>>>>>>>> END of Data <<<<<<<<<<
>>>>>>>>>> Raw Data Start <<<<<<<<
190.664	-405
191.040	6
191.415	6
191.791	3
192.166	8
192.542	8
192.917	6
193.293	8
193.668	6
194.044	10
194.419	-11
194.794	9
195.170	9
195.545	10
195.920	11
196.296	11
196.671	12
197.046	12
197.421	13
197.796	14
198.171	14
198.546	14
198.922	15
199.297	15
199.672	16
200.047	16
200.422	16
200.796	16
201.171	17
201.546	17
201.921	16
202.296	17
202.671	17
203.045	17
203.420	17
203.795	17
204.170	17
204.544	17
204.919	17
205.294	17
205.668	17
206.043	16
206.417	16
206.792	16
207.166	15
207.541	15
207.915	15
208.289	15
208.664	14
209.038	14
209.412	15
209.787	15
210.161	15
210.535	15
210.909	15
211.284	15
211.658	15
212.032	15
212.406	15
212.780	15
213.154	14
213.528	14
213.902	14
214.276	15
214.650	14
215.024	15
215.398	15
215.772	15
216.145	15
216.519	15
216.893	15
217.267	15
217.640	15
218.014	16
218.388	15
218.761	15
219.135	16
219.508	16
219.882	16
220.256	16
220.629	16
221.003	16
221.376	16
221.749	17
222.123	17
222.496	17
222.869	17
223.243	17
223.616	17
223.989	17
224.362	18
224.736	18
225.109	18
225.482	18
225.855	18
226.228	18
226.601	18
226.974	18
227.347	17
227.720	17
228.093	17
228.466	17
228.839	17
229.212	17
229.585	17
229.957	17
230.330	17
230.703	16
231.076	17
231.448	17
231.821	16
232.194	16
232.566	16
232.939	16
233.311	16
233.684	16
234.056	16
234.429	16
234.801	16
235.174	17
235.546	17
235.918	17
236.291	17
236.663	18
237.035	17
237.408	18
237.780	18
238.152	18
238.524	18
238.896	18
239.268	18
239.641	18
240.013	18
240.385	18
240.757	18
241.129	18
241.500	18
241.872	18
242.244	18
242.616	18
242.988	18
243.360	18
243.731	17
244.103	17
244.475	17
244.847	18
245.218	17
245.590	17
245.961	17
246.333	17
246.705	17
247.076	17
247.448	17
247.819	18
248.190	18
248.562	18
248.933	18
249.305	19
249.676	19
250.047	19
250.418	19
250.790	19
251.161	19
251.532	19
251.903	19
252.274	18
252.645	18
253.016	18
253.387	19
253.758	19
254.129	19
254.500	19
254.871	19
255.242	19
255.613	19
255.984	19
256.355	18
256.725	18
257.096	18
257.467	18
257.838	18
258.208	17
258.579	18
258.949	17
259.320	18
259.690	18
260.061	18
260.431	18
260.802	18
261.172	18
261.543	18
261.913	18
262.283	19
262.654	19
263.024	19
263.394	19
263.764	19
264.135	19
264.505	19
264.875	19
265.245	19
265.615	19
265.985	19
266.355	19
266.725	19
267.095	20
267.465	20
267.835	20
268.205	20
268.575	20
268.944	20
269.314	20
269.684	19
270.054	19
270.423	19
270.793	19
271.163	19
271.532	19
271.902	19
272.271	19
272.641	19
273.010	19
273.380	19
273.749	19
274.119	20
274.488	19
274.857	19
275.227	19
275.596	20
275.965	20
276.335	20
276.704	20
277.073	19
277.442	20
277.811	20
278.180	20
278.549	20
278.918	20
279.287	19
279.656	19
280.025	20
280.394	20
280.763	20
281.132	20
281.501	20
281.869	20
282.238	20
282.607	20
282.976	20
283.344	19
283.713	19
284.081	19
284.450	19
284.819	19
285.187	19
285.556	20
285.924	20
286.292	20
286.661	20
287.029	20
287.398	20
287.766	20
288.134	20
288.502	19
288.871	19
289.239	19
289.607	19
289.975	19
290.343	19
290.711	19
291.079	20
291.447	19
291.815	20
292.183	20
292.551	19
292.919	19
293.287	19
293.655	19
294.022	19
294.390	19
294.758	19
295.126	19
295.493	19
295.861	19
296.229	19
296.596	19
296.964	18
297.331	19
297.699	19
298.066	19
298.434	20
298.801	19
299.168	19
299.536	19
299.903	19
300.270	19
300.638	19
301.005	19
301.372	20
301.739	20
302.106	20
302.473	20
302.840	20
303.207	20
303.574	20
303.941	20
304.308	20
304.675	20
305.042	20
305.409	20
305.776	20
306.143	20
306.509	20
306.876	20
307.243	20
307.610	20
307.976	20
308.343	20
308.709	20
309.076	20
309.442	19
309.809	20
310.175	19
310.542	20
310.908	20
311.275	20
311.641	20
312.007	20
312.373	20
312.740	21
313.106	21
313.472	21
313.838	20
314.204	20
314.570	21
314.936	21
315.302	21
315.668	21
316.034	21
316.400	21
316.766	21
317.132	21
317.498	21
317.864	21
318.230	21
318.595	21
318.961	21
319.327	21
319.692	21
320.058	22
320.424	22
320.789	22
321.155	22
321.520	23
321.886	23
322.251	23
322.616	24
322.982	24
323.347	25
323.712	25
324.078	26
324.443	26
324.808	27
325.173	27
325.539	28
325.904	28
326.269	29
326.634	30
326.999	30
327.364	30
327.729	31
328.094	31
328.459	32
328.823	32
329.188	32
329.553	33
329.918	33
330.283	34
330.647	34
331.012	35
331.377	35
331.741	36
332.106	36
332.470	36
332.835	37
333.199	37
333.564	37
333.928	38
334.293	38
334.657	39
335.021	39
335.386	39
335.750	40
336.114	40
336.478	41
336.843	41
337.207	42
337.571	42
337.935	43
338.299	44
338.663	44
339.027	45
339.391	45
339.755	46
340.119	47
340.483	47
340.846	47
341.210	48
341.574	49
341.938	49
342.301	50
342.665	50
343.029	51
343.392	51
343.756	52
344.119	53
344.483	53
344.846	54
345.210	54
345.573	54
345.937	55
346.300	55
346.663	56
347.027	56
347.390	56
347.753	56
348.116	57
348.479	57
348.843	58
349.206	58
349.569	59
349.932	59
350.295	60
350.658	60
351.021	60
351.383	60
351.746	60
352.109	61
352.472	61
352.835	61
353.197	61
353.560	61
353.923	62
354.285	62
354.648	63
355.011	63
355.373	63
355.736	63
356.098	64
356.461	64
356.823	64
357.185	64
357.548	64
357.910	64
358.272	64
358.635	65
358.997	65
359.359	65
359.721	65
360.083	65
360.445	66
360.807	66
361.169	66
361.531	66
361.893	66
362.255	66
362.617	66
362.979	66
363.341	67
363.703	67
364.064	67
364.426	67
364.788	68
365.149	68
365.511	68
365.873	68
366.234	68
366.596	68
366.957	69
367.319	68
367.680	69
368.042	69
368.403	69
368.764	69
369.126	69
369.487	69
369.848	69
370.209	69
370.570	69
370.931	69
371.293	69
371.654	69
372.015	69
372.376	69
372.737	68
373.098	69
373.458	69
373.819	68
374.180	68
374.541	68
374.902	68
375.263	68
375.623	68
375.984	68
376.345	68
376.705	68
377.066	68
377.426	68
377.787	69
378.147	68
378.508	68
378.868	69
379.228	69
379.589	69
379.949	69
380.309	69
380.670	69
381.030	70
381.390	70
381.750	71
382.110	71
382.470	70
382.830	71
383.190	70
383.550	71
383.910	71
384.270	71
384.630	72
384.990	72
385.350	72
385.709	73
386.069	73
386.429	73
386.788	73
387.148	73
387.508	73
387.867	73
388.227	74
388.586	74
388.946	74
389.305	74
389.665	74
390.024	75
390.383	75
390.743	76
391.102	76
391.461	76
391.820	76
392.179	76
392.539	76
392.898	76
393.257	76
393.616	76
393.975	77
394.334	77
394.693	77
395.051	78
395.410	79
395.769	79
396.128	79
396.487	80
396.845	80
397.204	80
397.563	81
397.921	81
398.280	81
398.638	81
398.997	82
399.355	82
399.714	83
400.072	83
400.431	84
400.789	84
401.147	85
401.506	85
401.864	86
402.222	86
402.580	87
402.938	87
403.297	87
403.655	87
404.013	87
404.371	88
404.729	88
405.087	88
405.444	89
405.802	89
406.160	89
406.518	89
406.876	90
407.233	90
407.591	90
407.949	90
408.306	91
408.664	91
409.022	91
409.379	91
409.737	92
410.094	92
410.451	93
410.809	93
411.166	94
411.523	94
411.881	95
412.238	95
412.595	96
412.952	96
413.310	97
413.667	97
414.024	98
414.381	98
414.738	99
415.095	100
415.452	100
415.809	101
416.165	101
416.522	102
416.879	103
417.236	104
417.593	105
417.949	107
418.306	109
418.663	110
419.019	112
419.376	114
419.732	115
420.089	117
420.445	118
420.802	119
421.158	121
421.514	123
421.871	124
422.227	126
422.583	127
422.939	128
423.295	130
423.652	131
424.008	133
424.364	134
424.720	135
425.076	135
425.432	136
425.788	137
426.143	138
426.499	140
426.855	141
427.211	142
427.567	144
427.922	145
428.278	147
428.634	148
428.989	149
429.345	151
429.700	152
430.056	153
430.411	155
430.767	157
431.122	159
431.478	160
431.833	162
432.188	164
432.543	165
432.899	167
433.254	169
433.609	171
433.964	172
434.319	174
434.674	175
435.029	177
435.384	179
435.739	180
436.094	183
436.449	185
436.804	188
437.158	191
437.513	195
437.868	199
438.223	202
438.577	206
438.932	210
439.287	215
439.641	219
439.996	223
440.350	227
440.704	231
441.059	236
441.413	241
441.768	245
442.122	249
442.476	254
442.830	258
443.185	262
443.539	267
443.893	271
444.247	275
444.601	279
444.955	283
445.309	285
445.663	288
446.017	291
446.371	294
446.724	297
447.078	299
447.432	301
447.786	303
448.139	306
448.493	307
448.847	309
449.200	310
449.554	312
449.907	313
450.261	315
450.614	317
450.968	319
451.321	321
451.674	323
452.027	324
452.381	327
452.734	329
453.087	332
453.440	335
453.793	338
454.146	341
454.499	345
454.852	350
455.205	355
455.558	360
455.911	365
456.264	370
456.617	375
456.970	380
457.322	385
457.675	389
458.028	393
458.380	396
458.733	400
459.086	403
459.438	408
459.791	412
460.143	417
460.496	423
460.848	429
461.200	436
461.553	443
461.905	450
462.257	456
462.609	462
462.961	467
463.314	473
463.666	478
464.018	482
464.370	486
464.722	492
465.074	497
465.426	501
465.777	506
466.129	510
466.481	513
466.833	516
467.184	518
467.536	519
467.888	520
468.239	520
468.591	521
468.943	522
469.294	524
469.646	527
469.997	530
470.348	535
470.700	540
471.051	547
471.402	555
471.754	564
472.105	572
472.456	581
472.807	592
473.158	604
473.509	616
473.860	630
474.211	643
474.562	658
474.913	672
475.264	688
475.615	704
475.966	720
476.316	735
476.667	750
477.018	766
477.368	782
477.719	798
478.070	813
478.420	828
478.771	843
479.121	857
479.472	872
479.822	888
480.172	904
480.523	923
480.873	949
481.223	991
481.573	1052
481.924	1128
482.274	1215
482.624	1306
482.974	1397
483.324	1477
483.674	1538
484.024	1580
484.374	1609
484.724	1629
485.073	1644
485.423	1656
485.773	1668
486.123	1679
486.472	1691
486.822	1702
487.172	1711
487.521	1719
487.871	1724
488.220	1722
488.570	1703
488.919	1665
489.268	1610
489.618	1546
489.967	1477
490.316	1408
490.666	1348
491.015	1306
491.364	1282
491.713	1272
492.062	1270
492.411	1274
492.760	1280
493.109	1288
493.458	1295
493.807	1302
494.156	1308
494.505	1315
494.853	1322
495.202	1329
495.551	1339
495.900	1349
496.248	1359
496.597	1370
496.945	1380
497.294	1390
497.642	1401
497.991	1413
498.339	1426
498.688	1441
499.036	1454
499.384	1467
499.732	1480
500.081	1490
500.429	1500
500.777	1508
501.125	1517
501.473	1525
501.821	1534
502.169	1543
502.517	1551
502.865	1556
503.213	1560
503.561	1565
503.908	1568
504.256	1571
504.604	1573
504.952	1575
505.299	1576
505.647	1575
505.994	1573
506.342	1571
506.689	1569
507.037	1567
507.384	1567
507.732	1567
508.079	1568
508.426	1568
508.774	1570
509.121	1570
509.468	1570
509.815	1569
510.162	1569
510.509	1569
510.856	1568
511.203	1567
511.550	1566
511.897	1565
512.244	1564
512.591	1563
512.938	1563
513.284	1562
513.631	1560
513.978	1559
514.324	1557
514.671	1554
515.018	1552
515.364	1550
515.711	1549
516.057	1547
516.403	1546
516.750	1544
517.096	1541
517.443	1538
517.789	1534
518.135	1531
518.481	1528
518.827	1526
519.173	1523
519.519	1521
519.865	1519
520.211	1517
520.557	1516
520.903	1516
521.249	1515
521.595	1515
521.941	1515
522.287	1515
522.632	1515
522.978	1516
523.324	1516
523.669	1518
524.015	1522
524.360	1528
524.706	1535
525.051	1543
525.397	1553
525.742	1564
526.087	1575
526.433	1587
526.778	1596
527.123	1604
527.468	1612
527.813	1619
528.158	1626
528.504	1635
528.849	1646
529.193	1660
529.538	1676
529.883	1695
530.228	1717
530.573	1741
530.918	1766
531.263	1791
531.607	1814
531.952	1835
532.296	1854
532.641	1870
532.986	1882
533.330	1895
533.675	1908
534.019	1924
534.363	1945
534.708	1967
535.052	1994
535.396	2021
535.741	2049
536.085	2072
536.429	2095
536.773	2115
537.117	2131
537.461	2145
537.805	2159
538.149	2174
538.493	2190
538.837	2206
539.181	2226
539.524	2250
539.868	2276
540.212	2306
540.556	2337
540.899	2370
541.243	2399
541.586	2425
541.930	2446
542.273	2463
542.617	2477
542.960	2492
543.304	2510
543.647	2532
543.990	2561
544.333	2591
544.677	2623
545.020	2654
545.363	2680
545.706	2701
546.049	2718
546.392	2730
546.735	2737
547.078	2742
547.421	2747
547.764	2755
548.106	2764
548.449	2776
548.792	2793
549.135	2816
549.477	2843
549.820	2869
550.162	2893
550.505	2912
550.847	2928
551.190	2939
551.532	2949
551.875	2960
552.217	2972
552.559	2987
552.901	3006
553.244	3028
553.586	3052
553.928	3077
554.270	3100
554.612	3119
554.954	3135
555.296	3149
555.638	3162
555.980	3177
556.322	3195
556.663	3219
557.005	3250
557.347	3290
557.689	3331
558.030	3372
558.372	3410
558.713	3445
559.055	3479
559.396	3511
559.738	3547
560.079	3583
560.421	3626
560.762	3674
561.103	3727
561.444	3786
561.786	3846
562.127	3910
562.468	3980
562.809	4056
563.150	4140
563.491	4231
563.832	4330
564.173	4444
564.514	4575
564.855	4732
565.195	4923
565.536	5152
565.877	5417
566.218	5719
566.558	6059
566.899	6432
567.239	6835
567.580	7258
567.920	7693
568.261	8130
568.601	8578
568.941	9042
569.282	9520
569.622	10016
569.962	10532
570.302	11083
570.643	11651
570.983	12224
571.323	12777
571.663	13311
572.003	13818
572.343	14294
572.683	14739
573.022	15193
573.362	15671
573.702	16165
574.042	16659
574.381	17131
574.721	17581
575.061	18011
575.400	18404
575.740	18751
576.079	19060
576.419	19367
576.758	19715
577.097	20127
577.437	20576
577.776	21058
578.115	21562
578.454	22072
578.794	22538
579.133	22898
579.472	23145
579.811	23287
580.150	23331
580.489	23301
580.828	23238
581.167	23178
581.505	23138
581.844	23107
582.183	23077
582.522	23063
582.860	23062
583.199	23062
583.538	23028
583.876	22923
584.215	22722
584.553	22412
584.891	22004
585.230	21503
585.568	20951
585.906	20391
586.245	19887
586.583	19454
586.921	19095
587.259	18769
587.597	18440
587.935	18099
588.273	17751
588.611	17426
588.949	17139
589.287	16898
589.625	16710
589.963	16561
590.300	16441
590.638	16331
590.976	16207
591.313	16063
591.651	15925
591.989	15805
592.326	15707
592.664	15623
593.001	15554
593.338	15512
593.676	15490
594.013	15497
594.350	15555
594.687	15652
595.025	15761
595.362	15859
595.699	15928
596.036	15971
596.373	15979
596.710	15945
597.047	15884
597.384	15812
597.720	15730
598.057	15664
598.394	15616
598.731	15588
599.067	15587
599.404	15614
599.741	15679
600.077	15768
600.414	15868
600.750	15973
601.087	16053
601.423	16090
601.759	16092
602.096	16063
602.432	16015
602.768	15943
603.104	15844
603.440	15721
603.776	15590
604.112	15449
604.448	15305
604.784	15152
605.120	14990
605.456	14832
605.792	14669
606.128	14497
606.463	14319
606.799	14141
607.135	13978
607.470	13817
607.806	13659
608.142	13503
608.477	13355
608.812	13211
609.148	13067
609.483	12915
609.819	12759
610.154	12609
610.489	12473
610.824	12353
611.159	12253
611.494	12152
611.830	12062
612.165	11975
612.500	11877
612.834	11762
613.169	11631
613.504	11489
613.839	11329
614.174	11149
614.509	10968
614.843	10787
615.178	10616
615.512	10446
615.847	10279
616.182	10113
616.516	9945
616.850	9767
617.185	9584
617.519	9397
617.853	9196
618.188	8987
618.522	8798
618.856	8637
619.190	8497
619.524	8374
619.858	8276
620.192	8198
620.526	8130
620.860	8061
621.194	7996
621.528	7932
621.862	7869
622.195	7790
622.529	7708
622.863	7621
623.196	7536
623.530	7448
623.864	7362
624.197	7273
624.530	7188
624.864	7111
625.197	7031
625.531	6940
625.864	6831
626.197	6713
626.530	6586
626.863	6444
627.196	6290
627.529	6134
627.862	5979
628.195	5827
628.528	5675
628.861	5530
629.194	5400
629.527	5276
629.860	5153
630.192	5033
630.525	4921
630.858	4816
631.190	4716
631.523	4619
631.855	4529
632.188	4451
632.520	4377
632.852	4308
633.185	4237
633.517	4168
633.849	4107
634.182	4050
634.514	3996
634.846	3947
635.178	3905
635.510	3867
635.842	3833
636.174	3798
636.506	3764
636.837	3732
637.169	3699
637.501	3664
637.833	3626
638.164	3584
638.496	3537
638.828	3483
639.159	3423
639.491	3358
639.822	3291
640.154	3223
640.485	3156
640.816	3090
641.147	3024
641.479	2961
641.810	2900
642.141	2840
642.472	2782
642.803	2723
643.134	2668
643.465	2622
643.796	2584
644.127	2557
644.458	2543
644.789	2543
645.119	2557
645.450	2581
645.781	2607
646.111	2633
646.442	2655
646.773	2673
647.103	2686
647.433	2698
647.764	2711
648.094	2728
648.425	2750
648.755	2776
649.085	2807
649.415	2839
649.745	2872
650.075	2906
650.405	2944
650.735	3029
651.065	3639
651.395	5529
651.725	8631
652.055	12267
652.385	15898
652.715	19527
653.044	23159
653.374	26797
653.704	30439
654.033	33450
654.363	35353
654.692	36619
655.022	37443
655.351	37985
655.680	38320
656.010	38504
656.339	38586
656.668	38609
656.997	38599
657.326	38566
657.655	38473
657.984	37843
658.313	35923
658.642	32780
658.971	29093
659.300	25407
659.629	21720
659.958	18035
660.286	14350
660.615	10666
660.944	7623
661.272	5690
661.601	4398
661.929	3543
662.258	2967
662.586	2591
662.915	2360
663.243	2226
663.571	2151
663.899	2104
664.228	2076
664.556	2056
664.884	2043
665.212	2034
665.540	2027
665.868	2023
666.196	2022
666.524	2021
666.852	2022
667.179	2030
667.507	2045
667.835	2068
668.162	2098
668.490	2136
668.818	2180
669.145	2226
669.473	2271
669.800	2313
670.127	2351
670.455	2382
670.782	2408
671.109	2432
671.436	2451
671.764	2466
672.091	2479
672.418	2490
672.745	2499
673.072	2508
673.399	2519
673.726	2531
674.053	2541
674.379	2544
674.706	2542
675.033	2541
675.359	2538
675.686	2532
676.013	2529
676.339	2530
676.666	2539
676.992	2557
677.318	2583
677.645	2613
677.971	2640
678.297	2665
678.624	2690
678.950	2713
679.276	2735
679.602	2756
679.928	2779
680.254	2806
680.580	2841
680.906	2885
681.232	2940
681.558	2998
681.883	3055
682.209	3108
682.535	3157
682.860	3202
683.186	3239
683.511	3269
683.837	3287
684.162	3302
684.488	3314
684.813	3326
685.138	3338
685.464	3348
685.789	3356
686.114	3365
686.439	3376
686.764	3388
687.089	3397
687.414	3398
687.739	3387
688.064	3367
688.389	3341
688.714	3310
689.039	3277
689.363	3242
689.688	3204
690.013	3167
690.337	3134
690.662	3107
690.986	3082
691.311	3058
691.635	3033
691.959	3010
692.284	2994
692.608	2991
692.932	2996
693.256	3006
693.580	3019
693.904	3035
694.228	3054
694.552	3072
694.876	3080
695.200	3078
695.524	3065
695.848	3046
696.172	3022
696.495	2996
696.819	2969
697.143	2942
697.466	2913
697.790	2889
698.113	2872
698.437	2864
698.760	2863
699.083	2861
699.407	2854
699.730	2839
700.053	2815
700.376	2783
700.699	2739
701.022	2683
701.345	2621
701.668	2565
701.991	2517
702.314	2484
702.637	2469
702.960	2475
703.283	2501
703.605	2547
703.928	2609
704.251	2679
704.573	2749
704.896	2812
705.218	2863
705.540	2904
705.863	2936
706.185	2962
706.507	2986
706.830	3008
707.152	3031
707.474	3055
707.796	3083
708.118	3112
708.440	3140
708.762	3165
709.084	3184
709.406	3195
709.728	3197
710.049	3192
710.371	3178
710.693	3157
711.014	3134
711.336	3111
711.658	3091
711.979	3073
712.301	3057
712.622	3039
712.943	3018
713.265	2993
713.586	2967
713.907	2941
714.228	2919
714.549	2901
714.870	2889
715.191	2884
715.512	2883
715.833	2879
716.154	2872
716.475	2860
716.796	2841
717.117	2815
717.437	2783
717.758	2749
718.078	2713
718.399	2678
718.719	2647
719.040	2620
719.360	2600
719.681	2585
720.001	2575
720.321	2569
720.642	2567
720.962	2570
721.282	2576
721.602	2584
721.922	2595
722.242	2607
722.562	2624
722.882	2644
723.202	2663
723.521	2680
723.841	2698
724.161	2717
724.481	2735
724.800	2754
725.120	2779
725.439	2808
725.759	2842
726.078	2880
726.398	2926
726.717	2983
727.036	3047
727.355	3114
727.675	3180
727.994	3243
728.313	3303
728.632	3355
728.951	3398
729.270	3436
729.589	3471
729.908	3514
730.226	3563
730.545	3616
730.864	3674
731.182	3737
731.501	3800
731.820	3860
732.138	3912
732.457	3959
732.775	4001
733.093	4035
733.412	4055
733.730	4061
734.048	4052
734.367	4035
734.685	4011
735.003	3983
735.321	3959
735.639	3939
735.957	3923
736.275	3909
736.593	3887
736.910	3854
737.228	3809
737.546	3750
737.863	3681
738.181	3605
738.499	3526
738.816	3447
739.134	3370
739.451	3292
739.768	3213
740.086	3137
740.403	3067
740.720	3002
741.038	2941
741.355	2882
741.672	2823
741.989	2763
742.306	2701
742.623	2637
742.940	2575
743.257	2517
743.573	2466
743.890	2425
744.207	2395
744.523	2374
744.840	2360
745.157	2351
745.473	2350
745.790	2358
746.106	2376
746.422	2404
746.739	2439
747.055	2481
747.371	2528
747.687	2577
748.004	2624
748.320	2666
748.636	2702
748.952	2740
749.268	2776
749.584	2811
749.899	2843
750.215	2877
750.531	2914
750.847	2955
751.162	2997
751.478	3037
751.793	3079
752.109	3125
752.424	3173
752.740	3223
753.055	3279
753.370	3346
753.686	3423
754.001	3507
754.316	3595
754.631	3688
754.946	3787
755.261	3891
755.576	3991
755.891	4089
756.206	4186
756.521	4288
756.836	4391
757.150	4491
757.465	4578
757.780	4653
758.094	4716
758.409	4764
758.723	4794
759.038	4807
759.352	4807
759.667	4793
759.981	4769
760.295	4746
760.609	4727
760.923	4715
761.238	4708
761.552	4704
761.866	4696
762.180	4686
762.493	4660
762.807	4611
763.121	4536
763.435	4442
763.749	4340
764.062	4243
764.376	4163
764.689	4107
765.003	4078
765.316	4074
765.630	4087
765.943	4110
766.257	4137
766.570	4159
766.883	4165
767.196	4154
767.509	4127
767.822	4088
768.135	4037
768.448	3982
768.761	3923
769.074	3873
769.387	3834
769.700	3810
770.013	3795
770.325	3783
770.638	3765
770.950	3734
771.263	3684
771.575	3614
771.888	3524
772.200	3421
772.513	3309
772.825	3191
773.137	3070
773.449	2951
773.761	2835
774.074	2728
774.386	2633
774.698	2552
775.010	2487
775.321	2440
775.633	2409
775.945	2392
776.257	2382
776.568	2378
776.880	2385
777.192	2403
777.503	2429
777.815	2462
778.126	2503
778.438	2553
778.749	2607
779.060	2659
779.372	2709
779.683	2757
779.994	2800
780.305	2834
780.616	2856
780.927	2871
781.238	2875
781.549	2869
781.860	2849
782.171	2823
782.481	2794
782.792	2764
783.103	2734
783.413	2702
783.724	2668
784.034	2635
784.345	2605
784.655	2578
784.966	2550
785.276	2520
785.586	2492
785.896	2463
786.207	2433
786.517	2401
786.827	2370
787.137	2340
787.447	2312
787.757	2285
788.066	2259
788.376	2234
788.686	2209
788.996	2183
789.305	2157
789.615	2137
789.925	2126
790.234	2123
790.544	2128
790.853	2137
791.162	2148
791.472	2157
791.781	2161
792.090	2156
792.399	2142
792.708	2121
793.017	2099
793.326	2077
793.635	2056
793.944	2037
794.253	2020
794.562	2009
794.871	2001
795.179	1996
795.488	1989
795.797	1978
796.105	1959
796.414	1930
796.722	1890
797.031	1839
797.339	1778
797.647	1710
797.956	1638
798.264	1571
798.572	1516
798.880	1473
799.188	1441
799.496	1418
799.804	1401
800.112	1388
800.420	1377
800.728	1366
801.035	1351
801.343	1335
801.651	1322
801.958	1318
802.266	1323
802.573	1334
802.881	1348
803.188	1365
803.496	1384
803.803	1404
804.110	1421
804.417	1437
804.724	1451
805.032	1464
805.339	1474
805.646	1482
805.953	1486
806.259	1486
806.566	1484
806.873	1478
807.180	1470
807.486	1463
807.793	1453
808.100	1438
808.406	1413
808.713	1381
809.019	1343
809.326	1305
809.632	1269
809.938	1235
810.244	1203
810.551	1177
810.857	1155
811.163	1136
811.469	1116
811.775	1094
812.081	1071
812.387	1051
812.692	1034
812.998	1022
813.304	1012
813.610	1003
813.915	997
814.221	991
814.526	987
814.832	983
815.137	978
815.443	972
815.748	962
816.053	949
816.358	936
816.664	924
816.969	913
817.274	903
817.579	895
817.884	890
818.189	889
818.493	888
818.798	885
819.103	879
819.408	871
819.712	861
820.017	850
820.321	838
820.626	827
820.930	816
821.235	809
821.539	805
821.843	805
822.148	807
822.452	808
822.756	807
823.060	804
823.364	799
823.668	791
823.972	783
824.276	775
824.580	768
824.883	764
825.187	763
825.491	762
825.795	762
826.098	762
826.402	761
826.705	758
827.008	753
827.312	745
827.615	733
827.918	718
828.222	700
828.525	683
828.828	666
829.131	649
829.434	632
829.737	617
830.040	604
830.343	595
830.645	585
830.948	576
831.251	567
831.553	559
831.856	553
832.159	547
832.461	540
832.764	532
833.066	525
833.368	518
833.671	514
833.973	510
834.275	507
834.577	503
834.879	499
835.181	494
835.483	488
835.785	481
836.087	473
836.389	463
836.690	452
836.992	439
837.294	426
837.595	413
837.897	398
838.198	385
838.500	371
838.801	359
839.103	349
839.404	340
839.705	332
840.006	326
840.307	321
840.608	317
840.910	314
841.210	312
841.511	310
841.812	307
842.113	303
842.414	299
842.715	294
843.015	287
843.316	281
843.616	275
843.917	270
844.217	265
844.518	261
844.818	258
845.118	256
845.419	255
845.719	253
846.019	252
846.319	250
846.619	249
846.919	248
847.219	246
847.519	245
847.819	244
848.118	244
848.418	247
848.718	255
849.017	267
849.317	284
849.616	305
849.916	329
850.215	356
850.515	385
850.814	414
851.113	440
851.412	463
851.712	484
852.011	504
852.310	522
852.609	539
852.908	553
853.206	566
853.505	578
853.804	588
854.103	598
854.401	604
854.700	606
854.999	604
855.297	597
855.595	584
855.894	567
856.192	546
856.491	523
856.789	497
857.087	470
857.385	446
857.683	423
857.981	403
858.279	384
858.577	366
858.875	351
859.173	339
859.471	328
859.768	320
860.066	313
860.363	306
860.661	302
860.959	298
861.256	294
861.553	289
861.851	284
862.148	278
862.445	273
862.742	267
863.039	263
863.337	260
863.634	256
863.931	254
864.227	253
864.524	252
864.821	253
865.118	252
865.415	249
865.711	246
866.008	242
866.304	238
866.601	233
866.897	229
867.194	225
867.490	223
867.786	222
868.082	222
868.379	222
868.675	223
868.971	223
869.267	223
869.563	223
869.859	222
870.154	222
870.450	220
870.746	219
871.042	218
871.337	218
871.633	219
871.928	220
872.224	221
872.519	223
872.815	225
873.110	225
873.405	225
873.700	225
873.995	224
874.291	224
874.586	225
874.881	226
875.175	229
875.470	232
875.765	237
876.060	241
876.355	246
876.649	251
876.944	255
877.238	260
877.533	263
877.827	266
878.122	269
878.416	270
878.710	269
879.005	269
879.299	268
879.593	266
879.887	265
880.181	264
880.475	262
880.769	260
881.063	258
881.356	255
881.650	251
881.944	248
882.238	207
882.531	197
882.825	195
883.118	196
883.412	195
883.705	198
883.998	202
884.291	207
884.585	209
884.878	222
>>>>>>>>>> END of Data <<<<<<<<<<