Date	2021年06月15日火曜日 04時43分07秒
Spectrometers	USB2+H05879
ダーク	使用
リファレンス	使用
積分時間[msec]	10
平均回数	280
ｽﾑｰｼﾞﾝｸﾞ	10
Electrical Dark	USE
ピクセル数	2048
計測モード	吸光度
保存開始波長[nm]	190.664
保存終了波長[nm]	884.878
保存ﾋﾟｯﾁ波長[nm]	全波長

>>>>>>>>>> Data Start <<<<<<<<<<<<
190.664	0.000000
191.040	0.000000
191.415	0.000000
191.791	-2.547232
192.166	-0.353279
192.542	-0.833319
192.917	0.000000
193.293	-0.525778
193.668	-0.463270
194.044	-1.243349
194.419	0.000000
194.794	-1.389816
195.170	-1.297987
195.545	-1.197594
195.920	-1.068592
196.296	-0.963080
196.671	-0.801776
197.046	-0.646107
197.421	-0.593062
197.796	-0.592591
198.171	-0.548696
198.546	-0.501016
198.922	-0.461308
199.297	-0.446353
199.672	-0.426608
200.047	-0.399579
200.422	-0.366089
200.796	-0.353838
201.171	-0.330118
201.546	-0.327504
201.921	-0.320648
202.296	-0.309054
202.671	-0.284356
203.045	-0.266625
203.420	-0.259396
203.795	-0.243497
204.170	-0.228511
204.544	-0.229055
204.919	-0.233290
205.294	-0.231477
205.668	-0.213394
206.043	-0.200810
206.417	-0.207845
206.792	-0.200060
207.166	-0.190159
207.541	-0.190461
207.915	-0.197456
208.289	-0.187150
208.664	-0.187459
209.038	-0.189125
209.412	-0.178541
209.787	-0.160285
210.161	-0.153103
210.535	-0.161347
210.909	-0.146243
211.284	-0.145095
211.658	-0.153476
212.032	-0.159905
212.406	-0.167891
212.780	-0.167117
213.154	-0.170397
213.528	-0.174347
213.902	-0.177463
214.276	-0.165998
214.650	-0.169724
215.024	-0.165466
215.398	-0.157219
215.772	-0.146412
216.145	-0.143689
216.519	-0.132885
216.893	-0.129955
217.267	-0.133651
217.640	-0.138723
218.014	-0.128587
218.388	-0.118345
218.761	-0.127417
219.135	-0.113286
219.508	-0.112465
219.882	-0.116383
220.256	-0.110732
220.629	-0.102373
221.003	-0.097777
221.376	-0.092347
221.749	-0.095488
222.123	-0.097720
222.496	-0.095784
222.869	-0.092269
223.243	-0.090398
223.616	-0.091441
223.989	-0.098297
224.362	-0.104427
224.736	-0.107757
225.109	-0.104869
225.482	-0.105713
225.855	-0.111765
226.228	-0.113895
226.601	-0.115395
226.974	-0.115810
227.347	-0.107350
227.720	-0.101032
228.093	-0.102909
228.466	-0.106399
228.839	-0.102450
229.212	-0.108695
229.585	-0.116646
229.957	-0.114821
230.330	-0.104913
230.703	-0.106480
231.076	-0.112122
231.448	-0.116141
231.821	-0.116460
232.194	-0.112663
232.566	-0.104442
232.939	-0.106573
233.311	-0.106580
233.684	-0.101874
234.056	-0.100796
234.429	-0.094108
234.801	-0.097330
235.174	-0.095022
235.546	-0.099920
235.918	-0.089917
236.291	-0.086366
236.663	-0.079157
237.035	-0.075511
237.408	-0.058387
237.780	-0.052719
238.152	-0.058287
238.524	-0.059223
238.896	-0.050684
239.268	-0.047782
239.641	-0.044633
240.013	-0.028201
240.385	-0.025601
240.757	-0.021732
241.129	-0.016960
241.500	-0.018841
241.872	-0.015939
242.244	-0.017473
242.616	-0.019367
242.988	-0.015451
243.360	-0.009538
243.731	-0.004977
244.103	-0.011868
244.475	-0.022840
244.847	-0.015440
245.218	-0.015645
245.590	-0.015183
245.961	-0.009076
246.333	-0.009181
246.705	-0.010582
247.076	-0.010222
247.448	-0.010088
247.819	-0.021557
248.190	-0.013014
248.562	-0.013133
248.933	-0.016731
249.305	-0.014506
249.676	-0.015476
250.047	-0.018424
250.418	-0.017841
250.790	-0.016477
251.161	-0.019502
251.532	-0.026540
251.903	-0.022019
252.274	-0.011664
252.645	-0.008423
253.016	-0.016855
253.387	-0.022326
253.758	-0.028437
254.129	-0.030009
254.500	-0.028788
254.871	-0.025301
255.242	-0.025533
255.613	-0.025009
255.984	-0.029090
256.355	-0.028556
256.725	-0.025457
257.096	-0.026491
257.467	-0.024410
257.838	-0.023000
258.208	-0.026743
258.579	-0.026261
258.949	-0.021532
259.320	-0.020382
259.690	-0.017343
260.061	-0.014471
260.431	-0.012681
260.802	-0.007917
261.172	-0.003296
261.543	0.007611
261.913	0.016114
262.283	0.015489
262.654	0.017696
263.024	0.013893
263.394	0.009755
263.764	0.001602
264.135	0.003457
264.505	-0.000575
264.875	0.000151
265.245	0.001607
265.615	0.001207
265.985	0.006379
266.355	0.008182
266.725	0.006518
267.095	0.010121
267.465	0.008657
267.835	0.002336
268.205	-0.002477
268.575	0.006382
268.944	0.005636
269.314	-0.004900
269.684	-0.007968
270.054	-0.013553
270.423	-0.018534
270.793	-0.012847
271.163	-0.009213
271.532	-0.001148
271.902	0.002539
272.271	0.010409
272.641	0.014737
273.010	0.010235
273.380	0.008601
273.749	0.007929
274.119	0.011019
274.488	0.017774
274.857	0.016914
275.227	0.021652
275.596	0.013936
275.965	0.011170
276.335	0.009450
276.704	0.009554
277.073	0.013831
277.442	0.014304
277.811	0.016522
278.180	0.022148
278.549	0.019954
278.918	0.017657
279.287	0.015766
279.656	0.021015
280.025	0.019750
280.394	0.013909
280.763	0.018586
281.132	0.026096
281.501	0.029016
281.869	0.021933
282.238	0.022690
282.607	0.022950
282.976	0.020175
283.344	0.032059
283.713	0.033870
284.081	0.027506
284.450	0.031882
284.819	0.034812
285.187	0.040881
285.556	0.044713
285.924	0.044409
286.292	0.046580
286.661	0.048077
287.029	0.043186
287.398	0.039261
287.766	0.034596
288.134	0.039587
288.502	0.042861
288.871	0.039515
289.239	0.043998
289.607	0.048445
289.975	0.046173
290.343	0.050465
290.711	0.046445
291.079	0.046907
291.447	0.049754
291.815	0.055067
292.183	0.056500
292.551	0.057476
292.919	0.059540
293.287	0.064650
293.655	0.067580
294.022	0.068196
294.390	0.074954
294.758	0.080602
295.126	0.078179
295.493	0.086770
295.861	0.092671
296.229	0.084722
296.596	0.088377
296.964	0.085664
297.331	0.086939
297.699	0.090827
298.066	0.091464
298.434	0.098343
298.801	0.101260
299.168	0.099963
299.536	0.104714
299.903	0.103502
300.270	0.109481
300.638	0.110840
301.005	0.110776
301.372	0.114917
301.739	0.121563
302.106	0.119097
302.473	0.128850
302.840	0.140567
303.207	0.152897
303.574	0.160618
303.941	0.179779
304.308	0.190894
304.675	0.201372
305.042	0.221068
305.409	0.238561
305.776	0.251420
306.143	0.271278
306.509	0.292776
306.876	0.321626
307.243	0.346580
307.610	0.378567
307.976	0.402563
308.343	0.432533
308.709	0.465538
309.076	0.497631
309.442	0.526413
309.809	0.561356
310.175	0.591655
310.542	0.618286
310.908	0.645515
311.275	0.674355
311.641	0.704693
312.007	0.734858
312.373	0.770199
312.740	0.798216
313.106	0.822289
313.472	0.859841
313.838	0.892675
314.204	0.916777
314.570	0.939214
314.936	0.963865
315.302	0.984274
315.668	1.008542
316.034	1.035517
316.400	1.069244
316.766	1.091676
317.132	1.124971
317.498	1.148665
317.864	1.166440
318.230	1.188218
318.595	1.212032
318.961	1.231602
319.327	1.258442
319.692	1.281038
320.058	1.296806
320.424	1.314288
320.789	1.337617
321.155	1.353942
321.520	1.373547
321.886	1.392899
322.251	1.413155
322.616	1.429714
322.982	1.448668
323.347	1.461210
323.712	1.478072
324.078	1.487890
324.443	1.499369
324.808	1.507139
325.173	1.523710
325.539	1.537973
325.904	1.549371
326.269	1.557481
326.634	1.572820
326.999	1.578839
327.364	1.587662
327.729	1.597369
328.094	1.605453
328.459	1.614420
328.823	1.622828
329.188	1.633775
329.553	1.641096
329.918	1.652213
330.283	1.662722
330.647	1.675734
331.012	1.687755
331.377	1.692588
331.741	1.697336
332.106	1.705297
332.470	1.711252
332.835	1.717495
333.199	1.723345
333.564	1.735521
333.928	1.740312
334.293	1.744837
334.657	1.748530
335.021	1.755650
335.386	1.762184
335.750	1.766790
336.114	1.768324
336.478	1.774656
336.843	1.774357
337.207	1.779993
337.571	1.784338
337.935	1.788470
338.299	1.787697
338.663	1.785727
339.027	1.789106
339.391	1.793139
339.755	1.797071
340.119	1.798519
340.483	1.797681
340.846	1.804709
341.210	1.804620
341.574	1.811402
341.938	1.812890
342.301	1.815043
342.665	1.817243
343.029	1.820286
343.392	1.824524
343.756	1.827009
344.119	1.827474
344.483	1.831592
344.846	1.830288
345.210	1.830868
345.573	1.831131
345.937	1.830624
346.300	1.834749
346.663	1.834676
347.027	1.836272
347.390	1.836841
347.753	1.835905
348.116	1.837059
348.479	1.837700
348.843	1.837854
349.206	1.834897
349.569	1.834068
349.932	1.836592
350.295	1.837864
350.658	1.838426
351.021	1.840882
351.383	1.843686
351.746	1.844639
352.109	1.844531
352.472	1.845925
352.835	1.847723
353.197	1.848640
353.560	1.852102
353.923	1.850440
354.285	1.850642
354.648	1.849304
355.011	1.849772
355.373	1.855205
355.736	1.857743
356.098	1.855091
356.461	1.856662
356.823	1.858495
357.185	1.862133
357.548	1.862886
357.910	1.861676
358.272	1.859596
358.635	1.855893
358.997	1.853770
359.359	1.856359
359.721	1.855763
360.083	1.858887
360.445	1.859526
360.807	1.858969
361.169	1.857651
361.531	1.861113
361.893	1.864779
362.255	1.867373
362.617	1.869594
362.979	1.869160
363.341	1.868154
363.703	1.869537
364.064	1.869748
364.426	1.872157
364.788	1.871659
365.149	1.872492
365.511	1.873863
365.873	1.875616
366.234	1.877220
366.596	1.878566
366.957	1.879689
367.319	1.879448
367.680	1.878933
368.042	1.876262
368.403	1.877697
368.764	1.878968
369.126	1.876893
369.487	1.875427
369.848	1.873125
370.209	1.873305
370.570	1.873795
370.931	1.876059
371.293	1.877395
371.654	1.877540
372.015	1.878474
372.376	1.881748
372.737	1.884006
373.098	1.885143
373.458	1.886895
373.819	1.889604
374.180	1.893764
374.541	1.893104
374.902	1.895786
375.263	1.897099
375.623	1.898886
375.984	1.901010
376.345	1.903071
376.705	1.906688
377.066	1.909527
377.426	1.911762
377.787	1.913118
378.147	1.915230
378.508	1.915128
378.868	1.916420
379.228	1.915991
379.589	1.915438
379.949	1.914310
380.309	1.914517
380.670	1.913383
381.030	1.912686
381.390	1.910370
381.750	1.907720
382.110	1.908149
382.470	1.908010
382.830	1.908432
383.190	1.910836
383.550	1.910451
383.910	1.910159
384.270	1.910550
384.630	1.910419
384.990	1.912184
385.350	1.911761
385.709	1.910141
386.069	1.911387
386.429	1.910567
386.788	1.913480
387.148	1.914260
387.508	1.915461
387.867	1.914733
388.227	1.914837
388.586	1.916311
388.946	1.918459
389.305	1.919162
389.665	1.919481
390.024	1.920223
390.383	1.921307
390.743	1.920086
391.102	1.919956
391.461	1.920328
391.820	1.921120
392.179	1.919163
392.539	1.918385
392.898	1.918919
393.257	1.919602
393.616	1.920680
393.975	1.920186
394.334	1.920651
394.693	1.921340
395.051	1.921079
395.410	1.920966
395.769	1.924137
396.128	1.924948
396.487	1.924865
396.845	1.925174
397.204	1.924194
397.563	1.922640
397.921	1.920677
398.280	1.920757
398.638	1.918318
398.997	1.917922
399.355	1.914701
399.714	1.915465
400.072	1.912973
400.431	1.910720
400.789	1.909473
401.147	1.907029
401.506	1.906171
401.864	1.903073
402.222	1.900364
402.580	1.897297
402.938	1.895848
403.297	1.891374
403.655	1.888850
404.013	1.887429
404.371	1.885954
404.729	1.883390
405.087	1.883058
405.444	1.882352
405.802	1.879674
406.160	1.879939
406.518	1.877520
406.876	1.877113
407.233	1.874791
407.591	1.874284
407.949	1.873062
408.306	1.870500
408.664	1.869224
409.022	1.869472
409.379	1.868962
409.737	1.867192
410.094	1.865541
410.451	1.864951
410.809	1.862921
411.166	1.860324
411.523	1.859135
411.881	1.857242
412.238	1.854846
412.595	1.850557
412.952	1.848071
413.310	1.846120
413.667	1.844816
414.024	1.844714
414.381	1.842292
414.738	1.840148
415.095	1.838302
415.452	1.836261
415.809	1.833859
416.165	1.831546
416.522	1.828289
416.879	1.824913
417.236	1.822202
417.593	1.820566
417.949	1.816735
418.306	1.815978
418.663	1.816139
419.019	1.813398
419.376	1.810351
419.732	1.807908
420.089	1.806968
420.445	1.804656
420.802	1.802496
421.158	1.797879
421.514	1.793228
421.871	1.790687
422.227	1.787222
422.583	1.784290
422.939	1.780314
423.295	1.777801
423.652	1.774348
424.008	1.769741
424.364	1.766195
424.720	1.763892
425.076	1.761002
425.432	1.757721
425.788	1.754358
426.143	1.749010
426.499	1.744482
426.855	1.740929
427.211	1.738144
427.567	1.734573
427.922	1.730588
428.278	1.725319
428.634	1.723205
428.989	1.719086
429.345	1.714485
429.700	1.710864
430.056	1.707947
430.411	1.705391
430.767	1.701425
431.122	1.696655
431.478	1.692661
431.833	1.688691
432.188	1.683937
432.543	1.679206
432.899	1.674182
433.254	1.667767
433.609	1.663159
433.964	1.658398
434.319	1.653124
434.674	1.647225
435.029	1.641822
435.384	1.636498
435.739	1.631673
436.094	1.626436
436.449	1.621708
436.804	1.617591
437.158	1.611992
437.513	1.605669
437.868	1.600058
438.223	1.595077
438.577	1.590001
438.932	1.585914
439.287	1.580862
439.641	1.575899
439.996	1.570462
440.350	1.566002
440.704	1.562035
441.059	1.557125
441.413	1.551870
441.768	1.546648
442.122	1.542148
442.476	1.536963
442.830	1.532420
443.185	1.528108
443.539	1.522844
443.893	1.518229
444.247	1.512365
444.601	1.507932
444.955	1.502884
445.309	1.497426
445.663	1.491581
446.017	1.486333
446.371	1.479902
446.724	1.474059
447.078	1.468189
447.432	1.462805
447.786	1.456651
448.139	1.450052
448.493	1.443910
448.847	1.438095
449.200	1.432312
449.554	1.426559
449.907	1.421247
450.261	1.415003
450.614	1.409152
450.968	1.403510
451.321	1.397751
451.674	1.392177
452.027	1.385782
452.381	1.379941
452.734	1.374010
453.087	1.368313
453.440	1.362208
453.793	1.356620
454.146	1.350699
454.499	1.344978
454.852	1.338964
455.205	1.333170
455.558	1.328575
455.911	1.323227
456.264	1.317965
456.617	1.313069
456.970	1.308094
457.322	1.302478
457.675	1.297903
458.028	1.292987
458.380	1.288256
458.733	1.283347
459.086	1.278977
459.438	1.274883
459.791	1.270453
460.143	1.265878
460.496	1.261105
460.848	1.256444
461.200	1.251877
461.553	1.247270
461.905	1.243105
462.257	1.238248
462.609	1.233897
462.961	1.229126
463.314	1.224868
463.666	1.220638
464.018	1.216074
464.370	1.211813
464.722	1.207994
465.074	1.203617
465.426	1.199734
465.777	1.195875
466.129	1.192149
466.481	1.188266
466.833	1.184303
467.184	1.180612
467.536	1.176823
467.888	1.173037
468.239	1.169202
468.591	1.164951
468.943	1.160636
469.294	1.156124
469.646	1.152075
469.997	1.147246
470.348	1.142951
470.700	1.138950
471.051	1.134909
471.402	1.130979
471.754	1.127017
472.105	1.123116
472.456	1.119657
472.807	1.116196
473.158	1.112678
473.509	1.109342
473.860	1.106106
474.211	1.102949
474.562	1.099822
474.913	1.096593
475.264	1.093573
475.615	1.090367
475.966	1.087270
476.316	1.084038
476.667	1.080647
477.018	1.077513
477.368	1.074788
477.719	1.071662
478.070	1.068306
478.420	1.065331
478.771	1.062439
479.121	1.059416
479.472	1.056565
479.822	1.053576
480.172	1.050579
480.523	1.047450
480.873	1.044154
481.223	1.040290
481.573	1.036421
481.924	1.032363
482.274	1.028648
482.624	1.025264
482.974	1.022363
483.324	1.019844
483.674	1.017796
484.024	1.015851
484.374	1.013879
484.724	1.011972
485.073	1.010062
485.423	1.008212
485.773	1.006227
486.123	1.004299
486.472	1.002355
486.822	1.000349
487.172	0.998419
487.521	0.996345
487.871	0.994397
488.220	0.992364
488.570	0.990174
488.919	0.987464
489.268	0.984468
489.618	0.981145
489.967	0.977362
490.316	0.973077
490.666	0.968667
491.015	0.964236
491.364	0.960100
491.713	0.956320
492.062	0.952834
492.411	0.949546
492.760	0.946329
493.109	0.943241
493.458	0.940158
493.807	0.937142
494.156	0.934124
494.505	0.931026
494.853	0.928018
495.202	0.924889
495.551	0.921659
495.900	0.918660
496.248	0.915737
496.597	0.912715
496.945	0.909793
497.294	0.906749
497.642	0.903650
497.991	0.900595
498.339	0.897436
498.688	0.894627
499.036	0.891924
499.384	0.888996
499.732	0.886242
500.081	0.883493
500.429	0.880477
500.777	0.877600
501.125	0.874843
501.473	0.872090
501.821	0.869284
502.169	0.866629
502.517	0.864007
502.865	0.861490
503.213	0.858823
503.561	0.856150
503.908	0.853620
504.256	0.850912
504.604	0.848318
504.952	0.845727
505.299	0.843071
505.647	0.840525
505.994	0.837864
506.342	0.835032
506.689	0.832426
507.037	0.829704
507.384	0.826987
507.732	0.824445
508.079	0.821880
508.426	0.819330
508.774	0.816699
509.121	0.814183
509.468	0.811760
509.815	0.809285
510.162	0.806775
510.509	0.804293
510.856	0.801899
511.203	0.799434
511.550	0.796993
511.897	0.794582
512.244	0.792264
512.591	0.789904
512.938	0.787636
513.284	0.785284
513.631	0.783029
513.978	0.780687
514.324	0.778322
514.671	0.776063
515.018	0.773745
515.364	0.771296
515.711	0.768971
516.057	0.766685
516.403	0.764367
516.750	0.762047
517.096	0.759833
517.443	0.757680
517.789	0.755411
518.135	0.753146
518.481	0.750969
518.827	0.748841
519.173	0.746587
519.519	0.744272
519.865	0.741957
520.211	0.739706
520.557	0.737265
520.903	0.734940
521.249	0.732627
521.595	0.730401
521.941	0.728017
522.287	0.725703
522.632	0.723313
522.978	0.720934
523.324	0.718561
523.669	0.716322
524.015	0.713877
524.360	0.711385
524.706	0.708953
525.051	0.706628
525.397	0.704326
525.742	0.701936
526.087	0.699527
526.433	0.697327
526.778	0.695117
527.123	0.692885
527.468	0.690547
527.813	0.688484
528.158	0.686239
528.504	0.683938
528.849	0.681466
529.193	0.679108
529.538	0.676697
529.883	0.674342
530.228	0.671773
530.573	0.669405
530.918	0.666856
531.263	0.664434
531.607	0.662011
531.952	0.659581
532.296	0.657258
532.641	0.654870
532.986	0.652387
533.330	0.650014
533.675	0.647634
534.019	0.645120
534.363	0.642613
534.708	0.640171
535.052	0.637654
535.396	0.635152
535.741	0.632815
536.085	0.630373
536.429	0.627849
536.773	0.625311
537.117	0.622740
537.461	0.620037
537.805	0.617124
538.149	0.614277
538.493	0.611439
538.837	0.608680
539.181	0.605829
539.524	0.602907
539.868	0.600031
540.212	0.597288
540.556	0.594440
540.899	0.591584
541.243	0.588811
541.586	0.585992
541.930	0.583175
542.273	0.580323
542.617	0.577475
542.960	0.574454
543.304	0.571417
543.647	0.568279
543.990	0.565080
544.333	0.561900
544.677	0.558903
545.020	0.555918
545.363	0.552924
545.706	0.549900
546.049	0.546856
546.392	0.543877
546.735	0.540924
547.078	0.537883
547.421	0.534732
547.764	0.531536
548.106	0.528241
548.449	0.524883
548.792	0.521504
549.135	0.518134
549.477	0.514754
549.820	0.511482
550.162	0.508199
550.505	0.504970
550.847	0.501710
551.190	0.498289
551.532	0.494785
551.875	0.491146
552.217	0.487448
552.559	0.483828
552.901	0.480206
553.244	0.476705
553.586	0.473261
553.928	0.469899
554.270	0.466682
554.612	0.463475
554.954	0.460318
555.296	0.457016
555.638	0.453735
555.980	0.450264
556.322	0.446639
556.663	0.442853
557.005	0.438958
557.347	0.435221
557.689	0.431504
558.030	0.427860
558.372	0.424272
558.713	0.420669
559.055	0.417097
559.396	0.413513
559.738	0.409858
560.079	0.406247
560.421	0.402653
560.762	0.399113
561.103	0.395565
561.444	0.392133
561.786	0.388817
562.127	0.385475
562.468	0.382106
562.809	0.378645
563.150	0.375164
563.491	0.371566
563.832	0.367846
564.173	0.364029
564.514	0.360094
564.855	0.356051
565.195	0.351965
565.536	0.347821
565.877	0.343836
566.218	0.339938
566.558	0.336148
566.899	0.332490
567.239	0.329089
567.580	0.325879
567.920	0.322948
568.261	0.320267
568.601	0.317681
568.941	0.315206
569.282	0.312858
569.622	0.310548
569.962	0.308270
570.302	0.305982
570.643	0.303797
570.983	0.301770
571.323	0.299811
571.663	0.297901
572.003	0.296013
572.343	0.294096
572.683	0.292104
573.022	0.289984
573.362	0.287769
573.702	0.285575
574.042	0.283434
574.381	0.281318
574.721	0.279255
575.061	0.277257
575.400	0.275401
575.740	0.273591
576.079	0.271795
576.419	0.269890
576.758	0.267910
577.097	0.265828
577.437	0.263699
577.776	0.261500
578.115	0.259318
578.454	0.257256
578.794	0.255431
579.133	0.253813
579.472	0.252345
579.811	0.250971
580.150	0.249627
580.489	0.248239
580.828	0.246724
581.167	0.245151
581.505	0.243548
581.844	0.241983
582.183	0.240376
582.522	0.238802
582.860	0.237278
583.199	0.235827
583.538	0.234456
583.876	0.233136
584.215	0.231843
584.553	0.230527
584.891	0.229251
585.230	0.227944
585.568	0.226592
585.906	0.225127
586.245	0.223633
586.583	0.222192
586.921	0.220900
587.259	0.219722
587.597	0.218613
587.935	0.217483
588.273	0.216234
588.611	0.214836
588.949	0.213312
589.287	0.211762
589.625	0.210180
589.963	0.208675
590.300	0.207231
590.638	0.205898
590.976	0.204591
591.313	0.203265
591.651	0.201932
591.989	0.200614
592.326	0.199337
592.664	0.198192
593.001	0.197072
593.338	0.196058
593.676	0.195118
594.013	0.194159
594.350	0.193229
594.687	0.192334
595.025	0.191509
595.362	0.190673
595.699	0.189827
596.036	0.188954
596.373	0.188105
596.710	0.187206
597.047	0.186245
597.384	0.185295
597.720	0.184325
598.057	0.183367
598.394	0.182418
598.731	0.181475
599.067	0.180532
599.404	0.179570
599.741	0.178597
600.077	0.177677
600.414	0.176850
600.750	0.176087
601.087	0.175390
601.423	0.174664
601.759	0.173957
602.096	0.173189
602.432	0.172464
602.768	0.171700
603.104	0.170954
603.440	0.170193
603.776	0.169481
604.112	0.168788
604.448	0.168103
604.784	0.167442
605.120	0.166783
605.456	0.166135
605.792	0.165515
606.128	0.164885
606.463	0.164281
606.799	0.163619
607.135	0.162974
607.470	0.162299
607.806	0.161609
608.142	0.160939
608.477	0.160304
608.812	0.159652
609.148	0.159045
609.483	0.158403
609.819	0.157810
610.154	0.157162
610.489	0.156519
610.824	0.155861
611.159	0.155234
611.494	0.154599
611.830	0.154047
612.165	0.153534
612.500	0.153046
612.834	0.152556
613.169	0.152066
613.504	0.151552
613.839	0.151050
614.174	0.150525
614.509	0.149986
614.843	0.149452
615.178	0.148945
615.512	0.148444
615.847	0.147958
616.182	0.147526
616.516	0.147111
616.850	0.146669
617.185	0.146235
617.519	0.145794
617.853	0.145353
618.188	0.144786
618.522	0.144215
618.856	0.143576
619.190	0.142945
619.524	0.142297
619.858	0.141721
620.192	0.141202
620.526	0.140677
620.860	0.140215
621.194	0.139771
621.528	0.139310
621.862	0.138850
622.195	0.138398
622.529	0.137896
622.863	0.137390
623.196	0.136839
623.530	0.136395
623.864	0.135974
624.197	0.135578
624.530	0.135144
624.864	0.134701
625.197	0.134386
625.531	0.134005
625.864	0.133641
626.197	0.133207
626.530	0.132870
626.863	0.132432
627.196	0.131913
627.529	0.131442
627.862	0.130942
628.195	0.130404
628.528	0.129898
628.861	0.129383
629.194	0.128904
629.527	0.128478
629.860	0.128077
630.192	0.127661
630.525	0.127141
630.858	0.126633
631.190	0.126081
631.523	0.125519
631.855	0.124895
632.188	0.124306
632.520	0.123788
632.852	0.123240
633.185	0.122735
633.517	0.122217
633.849	0.121704
634.182	0.121308
634.514	0.120948
634.846	0.120633
635.178	0.120283
635.510	0.119934
635.842	0.119622
636.174	0.119282
636.506	0.118930
636.837	0.118584
637.169	0.118267
637.501	0.117941
637.833	0.117624
638.164	0.117351
638.496	0.117028
638.828	0.116716
639.159	0.116299
639.491	0.115924
639.822	0.115487
640.154	0.115003
640.485	0.114422
640.816	0.113922
641.147	0.113381
641.479	0.112828
641.810	0.112233
642.141	0.111743
642.472	0.111241
642.803	0.110769
643.134	0.110229
643.465	0.109747
643.796	0.109261
644.127	0.108719
644.458	0.108338
644.789	0.107943
645.119	0.107684
645.450	0.107588
645.781	0.107643
646.111	0.107773
646.442	0.107838
646.773	0.107862
647.103	0.107818
647.433	0.107754
647.764	0.107634
648.094	0.107497
648.425	0.107410
648.755	0.107381
649.085	0.107249
649.415	0.107197
649.745	0.107206
650.075	0.107180
650.405	0.107121
650.735	0.105670
651.065	0.096665
651.395	0.088572
651.725	0.076312
652.055	0.052124
652.385	0.038312
652.715	0.029365
653.044	0.023105
653.374	0.018499
653.704	0.014985
654.033	0.019790
654.363	0.024958
654.692	0.027917
655.022	0.029669
655.351	0.030728
655.680	0.031359
656.010	0.031697
656.339	0.031838
656.668	0.031860
656.997	0.031824
657.326	0.031747
657.655	0.031669
657.984	0.031326
658.313	0.028942
658.642	0.026384
658.971	0.030739
659.300	0.036292
659.629	0.043615
659.958	0.053707
660.286	0.068513
660.615	0.092359
660.944	0.102548
661.272	0.100924
661.601	0.100033
661.929	0.099487
662.258	0.099288
662.586	0.098982
662.915	0.098703
663.243	0.098239
663.571	0.097711
663.899	0.097306
664.228	0.096967
664.556	0.096666
664.884	0.096362
665.212	0.096058
665.540	0.095763
665.868	0.095679
666.196	0.095623
666.524	0.095481
666.852	0.095395
667.179	0.095301
667.507	0.095213
667.835	0.095146
668.162	0.095144
668.490	0.095017
668.818	0.094950
669.145	0.094959
669.473	0.095026
669.800	0.095064
670.127	0.095209
670.455	0.095253
670.782	0.095303
671.109	0.095288
671.436	0.095439
671.764	0.095513
672.091	0.095488
672.418	0.095543
672.745	0.095476
673.072	0.095421
673.399	0.095376
673.726	0.095214
674.053	0.095085
674.379	0.095043
674.706	0.094902
675.033	0.094664
675.359	0.094581
675.686	0.094432
676.013	0.094245
676.339	0.094069
676.666	0.093856
676.992	0.093662
677.318	0.093611
677.645	0.093462
677.971	0.093324
678.297	0.093234
678.624	0.093093
678.950	0.093045
679.276	0.092982
679.602	0.092808
679.928	0.092547
680.254	0.092325
680.580	0.092153
680.906	0.091974
681.232	0.091819
681.558	0.091809
681.883	0.091854
682.209	0.091942
682.535	0.091961
682.860	0.091957
683.186	0.091953
683.511	0.091817
683.837	0.091690
684.162	0.091534
684.488	0.091416
684.813	0.091374
685.138	0.091148
685.464	0.091022
685.789	0.090857
686.114	0.090664
686.439	0.090627
686.764	0.090543
687.089	0.090473
687.414	0.090433
687.739	0.090394
688.064	0.090347
688.389	0.090244
688.714	0.090116
689.039	0.089801
689.363	0.089618
689.688	0.089445
690.013	0.089158
690.337	0.089093
690.662	0.089003
690.986	0.088919
691.311	0.088814
691.635	0.088648
691.959	0.088565
692.284	0.088335
692.608	0.088176
692.932	0.088018
693.256	0.087874
693.580	0.087806
693.904	0.087753
694.228	0.087779
694.552	0.087805
694.876	0.087768
695.200	0.087657
695.524	0.087504
695.848	0.087446
696.172	0.087228
696.495	0.086917
696.819	0.086717
697.143	0.086351
697.466	0.086029
697.790	0.085708
698.113	0.085443
698.437	0.085134
698.760	0.084831
699.083	0.084712
699.407	0.084554
699.730	0.084448
700.053	0.084300
700.376	0.084118
700.699	0.083812
701.022	0.083379
701.345	0.082908
701.668	0.082252
701.991	0.081679
702.314	0.080997
702.637	0.080211
702.960	0.079539
703.283	0.079042
703.605	0.078544
703.928	0.078275
704.251	0.078080
704.573	0.077987
704.896	0.077861
705.218	0.077727
705.540	0.077561
705.863	0.077247
706.185	0.076847
706.507	0.076361
706.830	0.075830
707.152	0.075209
707.474	0.074688
707.796	0.074167
708.118	0.073686
708.440	0.073384
708.762	0.073085
709.084	0.072878
709.406	0.072714
709.728	0.072558
710.049	0.072311
710.371	0.072108
710.693	0.071808
711.014	0.071347
711.336	0.070951
711.658	0.070599
711.979	0.070296
712.301	0.069990
712.622	0.069799
712.943	0.069578
713.265	0.069437
713.586	0.069257
713.907	0.069187
714.228	0.069171
714.549	0.069120
714.870	0.069118
715.191	0.069081
715.512	0.069001
715.833	0.068970
716.154	0.068799
716.475	0.068600
716.796	0.068465
717.117	0.068172
717.437	0.067792
717.758	0.067476
718.078	0.067032
718.399	0.066595
718.719	0.066125
719.040	0.065751
719.360	0.065366
719.681	0.065106
720.001	0.064856
720.321	0.064692
720.642	0.064494
720.962	0.064100
721.282	0.063960
721.602	0.063714
721.922	0.063415
722.242	0.063143
722.562	0.062826
722.882	0.062690
723.202	0.062615
723.521	0.062421
723.841	0.062300
724.161	0.062207
724.481	0.062131
724.800	0.062025
725.120	0.061836
725.439	0.061753
725.759	0.061580
726.078	0.061501
726.398	0.061339
726.717	0.061242
727.036	0.061112
727.355	0.061099
727.675	0.061204
727.994	0.061219
728.313	0.061300
728.632	0.061412
728.951	0.061449
729.270	0.061366
729.589	0.061173
729.908	0.060877
730.226	0.060564
730.545	0.060290
730.864	0.060070
731.182	0.059797
731.501	0.059576
731.820	0.059458
732.138	0.059311
732.457	0.059126
732.775	0.058919
733.093	0.058782
733.412	0.058636
733.730	0.058488
734.048	0.058299
734.367	0.057987
734.685	0.057607
735.003	0.057166
735.321	0.056762
735.639	0.056362
735.957	0.056056
736.275	0.055811
736.593	0.055678
736.910	0.055563
737.228	0.055444
737.546	0.055234
737.863	0.055115
738.181	0.054907
738.499	0.054595
738.816	0.054353
739.134	0.054075
739.451	0.053829
739.768	0.053591
740.086	0.053268
740.403	0.052927
740.720	0.052593
741.038	0.052287
741.355	0.051954
741.672	0.051621
741.989	0.051224
742.306	0.050894
742.623	0.050502
742.940	0.050043
743.257	0.049376
743.573	0.048796
743.890	0.048182
744.207	0.047642
744.523	0.047121
744.840	0.046650
745.157	0.046313
745.473	0.045821
745.790	0.045485
746.106	0.045140
746.422	0.044805
746.739	0.044433
747.055	0.044181
747.371	0.043919
747.687	0.043825
748.004	0.043777
748.320	0.043815
748.636	0.043734
748.952	0.043616
749.268	0.043632
749.584	0.043672
749.899	0.043732
750.215	0.043750
750.531	0.043712
750.847	0.043722
751.162	0.043759
751.478	0.043784
751.793	0.043715
752.109	0.043635
752.424	0.043620
752.740	0.043539
753.055	0.043532
753.370	0.043554
753.686	0.043675
754.001	0.043894
754.316	0.044071
754.631	0.044295
754.946	0.044338
755.261	0.044483
755.576	0.044577
755.891	0.044540
756.206	0.044459
756.521	0.044349
756.836	0.044271
757.150	0.044255
757.465	0.044247
757.780	0.044237
758.094	0.044229
758.409	0.044296
758.723	0.044398
759.038	0.044374
759.352	0.044355
759.667	0.044276
759.981	0.044249
760.295	0.044029
760.609	0.043783
760.923	0.043521
761.238	0.043189
761.552	0.043017
761.866	0.042806
762.180	0.042676
762.493	0.042639
762.807	0.042583
763.121	0.042541
763.435	0.042458
763.749	0.042252
764.062	0.042064
764.376	0.041793
764.689	0.041507
765.003	0.041219
765.316	0.040993
765.630	0.040886
765.943	0.040773
766.257	0.040680
766.570	0.040441
766.883	0.040319
767.196	0.040065
767.509	0.039761
767.822	0.039505
768.135	0.039132
768.448	0.038841
768.761	0.038490
769.074	0.038180
769.387	0.037886
769.700	0.037642
770.013	0.037408
770.325	0.037294
770.638	0.037235
770.950	0.037142
771.263	0.037081
771.575	0.036880
771.888	0.036574
772.200	0.036287
772.513	0.035922
772.825	0.035589
773.137	0.035315
773.449	0.035035
773.761	0.034742
774.074	0.034519
774.386	0.034290
774.698	0.034112
775.010	0.033769
775.321	0.033479
775.633	0.033170
775.945	0.032991
776.257	0.032897
776.568	0.032782
776.880	0.032693
777.192	0.032425
777.503	0.032295
777.815	0.032257
778.126	0.032303
778.438	0.032429
778.749	0.032658
779.060	0.032917
779.372	0.033007
779.683	0.033175
779.994	0.033251
780.305	0.033415
780.616	0.033634
780.927	0.033721
781.238	0.033738
781.549	0.033890
781.860	0.034020
782.171	0.034092
782.481	0.034187
782.792	0.034151
783.103	0.034156
783.413	0.034185
783.724	0.034217
784.034	0.034247
784.345	0.034125
784.655	0.034080
784.966	0.033955
785.276	0.033840
785.586	0.033731
785.896	0.033686
786.207	0.033642
786.517	0.033646
786.827	0.033655
787.137	0.033562
787.447	0.033535
787.757	0.033659
788.066	0.033646
788.376	0.033695
788.686	0.033749
788.996	0.033720
789.305	0.033747
789.615	0.033779
789.925	0.033735
790.234	0.033734
790.544	0.033775
790.853	0.033951
791.162	0.034041
791.472	0.034365
791.781	0.034486
792.090	0.034660
792.399	0.034751
792.708	0.034653
793.017	0.034647
793.326	0.034498
793.635	0.034420
793.944	0.034282
794.253	0.034069
794.562	0.033914
794.871	0.033819
795.179	0.033685
795.488	0.033575
795.797	0.033482
796.105	0.033444
796.414	0.033447
796.722	0.033427
797.031	0.033381
797.339	0.033224
797.647	0.033092
797.956	0.032638
798.264	0.032133
798.572	0.031644
798.880	0.031283
799.188	0.031121
799.496	0.030775
799.804	0.030767
800.112	0.030646
800.420	0.030713
800.728	0.030714
801.035	0.030617
801.343	0.030282
801.651	0.029998
801.958	0.029784
802.266	0.029673
802.573	0.029867
802.881	0.029928
803.188	0.029935
803.496	0.030219
803.803	0.030421
804.110	0.030608
804.417	0.030717
804.724	0.030834
805.032	0.030922
805.339	0.030897
805.646	0.030951
805.953	0.030946
806.259	0.030949
806.566	0.030796
806.873	0.030736
807.180	0.030635
807.486	0.030762
807.793	0.030976
808.100	0.031091
808.406	0.031239
808.713	0.031280
809.019	0.030802
809.326	0.030554
809.632	0.030361
809.938	0.029643
810.244	0.029051
810.551	0.028582
810.857	0.028224
811.163	0.028094
811.469	0.028001
811.775	0.027961
812.081	0.027865
812.387	0.028019
812.692	0.027890
812.998	0.028096
813.304	0.028022
813.610	0.028325
813.915	0.028278
814.221	0.028174
814.526	0.028247
814.832	0.028339
815.137	0.028322
815.443	0.028533
815.748	0.028632
816.053	0.028614
816.358	0.028588
816.664	0.028819
816.969	0.028944
817.274	0.029206
817.579	0.029152
817.884	0.029113
818.189	0.029042
818.493	0.028967
818.798	0.028813
819.103	0.028724
819.408	0.028523
819.712	0.028477
820.017	0.028177
820.321	0.027956
820.626	0.027867
820.930	0.027573
821.235	0.027215
821.539	0.027142
821.843	0.027031
822.148	0.026891
822.452	0.027047
822.756	0.027391
823.060	0.027372
823.364	0.027499
823.668	0.027549
823.972	0.027703
824.276	0.027680
824.580	0.027847
824.883	0.028005
825.187	0.028284
825.491	0.028454
825.795	0.028591
826.098	0.028708
826.402	0.028583
826.705	0.028667
827.008	0.028623
827.312	0.028799
827.615	0.028717
827.918	0.028539
828.222	0.028444
828.525	0.028351
828.828	0.028386
829.131	0.028360
829.434	0.028168
829.737	0.027813
830.040	0.027323
830.343	0.026829
830.645	0.026577
830.948	0.026080
831.251	0.025765
831.553	0.025239
831.856	0.024848
832.159	0.025052
832.461	0.024783
832.764	0.024915
833.066	0.024597
833.368	0.024488
833.671	0.024040
833.973	0.023927
834.275	0.023707
834.577	0.023679
834.879	0.023662
835.181	0.022951
835.483	0.022526
835.785	0.022338
836.087	0.021940
836.389	0.021856
836.690	0.021431
836.992	0.020572
837.294	0.019869
837.595	0.019032
837.897	0.018282
838.198	0.017699
838.500	0.016493
838.801	0.016000
839.103	0.015241
839.404	0.015012
839.705	0.014333
840.006	0.014121
840.307	0.014072
840.608	0.013955
840.910	0.013647
841.210	0.013800
841.511	0.013862
841.812	0.013961
842.113	0.014087
842.414	0.013802
842.715	0.013181
843.015	0.012756
843.316	0.012784
843.616	0.012270
843.917	0.012052
844.217	0.012184
844.518	0.011799
844.818	0.011350
845.118	0.011426
845.419	0.012030
845.719	0.011706
846.019	0.011514
846.319	0.011626
846.619	0.010996
846.919	0.011507
847.219	0.011588
847.519	0.011196
847.819	0.011496
848.118	0.010436
848.418	0.009877
848.718	0.009669
849.017	0.009489
849.317	0.009424
849.616	0.009931
849.916	0.011158
850.215	0.011566
850.515	0.011585
850.814	0.011984
851.113	0.012606
851.412	0.012616
851.712	0.012269
852.011	0.012314
852.310	0.013172
852.609	0.013439
852.908	0.013855
853.206	0.013968
853.505	0.014408
853.804	0.014459
854.103	0.014483
854.401	0.014838
854.700	0.014882
854.999	0.014954
855.297	0.015093
855.595	0.015352
855.894	0.015259
856.192	0.014767
856.491	0.014523
856.789	0.014539
857.087	0.014396
857.385	0.013893
857.683	0.013782
857.981	0.013881
858.279	0.013942
858.577	0.012654
858.875	0.012039
859.173	0.011116
859.471	0.010812
859.768	0.010352
860.066	0.009743
860.363	0.009316
860.661	0.008646
860.959	0.008832
861.256	0.009074
861.553	0.008963
861.851	0.008500
862.148	0.007768
862.445	0.007636
862.742	0.007400
863.039	0.006487
863.337	0.006135
863.634	0.005207
863.931	0.004871
864.227	0.005007
864.524	0.004682
864.821	0.004817
865.118	0.004263
865.415	0.004488
865.711	0.003783
866.008	0.002195
866.304	0.002077
866.601	0.001368
866.897	0.001463
867.194	0.000980
867.490	0.000409
867.786	-0.000032
868.082	-0.000241
868.379	-0.000101
868.675	0.000122
868.971	-0.000225
869.267	0.000234
869.563	0.000639
869.859	0.001453
870.154	0.001155
870.450	0.000119
870.746	-0.000820
871.042	-0.000792
871.337	-0.000616
871.633	-0.000702
871.928	-0.000494
872.224	-0.000565
872.519	-0.001229
872.815	-0.001206
873.110	-0.001322
873.405	-0.001684
873.700	-0.002166
873.995	-0.002552
874.291	-0.002254
874.586	-0.002071
874.881	-0.002609
875.175	-0.002435
875.470	-0.002581
875.765	-0.003417
876.060	-0.003609
876.355	-0.003412
876.649	-0.003062
876.944	-0.002452
877.238	-0.002541
877.533	-0.002473
877.827	-0.002156
878.122	-0.001986
878.416	-0.001260
878.710	-0.000160
879.005	-0.000040
879.299	-0.000221
879.593	-0.000423
879.887	-0.000384
880.181	-0.000299
880.475	-0.000385
880.769	-0.000403
881.063	-0.000133
881.356	0.000078
881.650	-0.000055
881.944	-0.000315
882.238	-0.007172
882.531	-0.004758
882.825	-0.007240
883.118	-0.009321
883.412	0.001250
883.705	-0.001409
883.998	-0.000431
884.291	-0.000253
884.585	-0.004636
884.878	-0.012339
>>>>>>>>>> END of Data <<<<<<<<<<
>>>>>>>>>> Raw Data Start <<<<<<<<
190.664	-400
191.040	8
191.415	8
191.791	7
192.166	5
192.542	8
192.917	6
193.293	9
193.668	6
194.044	14
194.419	-10
194.794	10
195.170	10
195.545	10
195.920	10
196.296	11
196.671	11
197.046	11
197.421	12
197.796	13
198.171	13
198.546	13
198.922	14
199.297	14
199.672	15
200.047	15
200.422	15
200.796	15
201.171	15
201.546	15
201.921	15
202.296	15
202.671	15
203.045	16
203.420	16
203.795	16
204.170	16
204.544	16
204.919	16
205.294	16
205.668	16
206.043	16
206.417	16
206.792	16
207.166	15
207.541	15
207.915	15
208.289	15
208.664	15
209.038	15
209.412	16
209.787	15
210.161	16
210.535	16
210.909	16
211.284	16
211.658	16
212.032	16
212.406	16
212.780	16
213.154	16
213.528	16
213.902	16
214.276	16
214.650	16
215.024	16
215.398	16
215.772	16
216.145	16
216.519	16
216.893	16
217.267	15
217.640	16
218.014	16
218.388	16
218.761	16
219.135	16
219.508	16
219.882	16
220.256	16
220.629	16
221.003	16
221.376	16
221.749	16
222.123	16
222.496	16
222.869	16
223.243	16
223.616	16
223.989	16
224.362	17
224.736	17
225.109	17
225.482	17
225.855	17
226.228	17
226.601	17
226.974	17
227.347	17
227.720	17
228.093	17
228.466	16
228.839	16
229.212	17
229.585	16
229.957	16
230.330	16
230.703	16
231.076	17
231.448	17
231.821	17
232.194	16
232.566	16
232.939	16
233.311	16
233.684	16
234.056	16
234.429	16
234.801	15
235.174	16
235.546	16
235.918	16
236.291	16
236.663	16
237.035	16
237.408	16
237.780	16
238.152	16
238.524	16
238.896	16
239.268	16
239.641	16
240.013	16
240.385	16
240.757	16
241.129	16
241.500	16
241.872	16
242.244	16
242.616	16
242.988	16
243.360	16
243.731	16
244.103	16
244.475	16
244.847	16
245.218	16
245.590	16
245.961	16
246.333	16
246.705	16
247.076	16
247.448	17
247.819	17
248.190	17
248.562	17
248.933	18
249.305	18
249.676	18
250.047	18
250.418	18
250.790	18
251.161	18
251.532	18
251.903	18
252.274	17
252.645	17
253.016	17
253.387	18
253.758	18
254.129	18
254.500	19
254.871	19
255.242	19
255.613	18
255.984	18
256.355	18
256.725	18
257.096	18
257.467	18
257.838	18
258.208	18
258.579	18
258.949	18
259.320	18
259.690	18
260.061	19
260.431	19
260.802	19
261.172	18
261.543	18
261.913	18
262.283	18
262.654	18
263.024	18
263.394	18
263.764	18
264.135	19
264.505	19
264.875	19
265.245	19
265.615	19
265.985	18
266.355	18
266.725	19
267.095	19
267.465	19
267.835	19
268.205	18
268.575	18
268.944	18
269.314	19
269.684	19
270.054	18
270.423	19
270.793	19
271.163	19
271.532	18
271.902	18
272.271	18
272.641	17
273.010	18
273.380	18
273.749	18
274.119	18
274.488	18
274.857	18
275.227	18
275.596	19
275.965	19
276.335	19
276.704	19
277.073	19
277.442	19
277.811	20
278.180	19
278.549	19
278.918	20
279.287	20
279.656	20
280.025	20
280.394	20
280.763	20
281.132	20
281.501	20
281.869	20
282.238	20
282.607	19
282.976	19
283.344	19
283.713	19
284.081	19
284.450	19
284.819	19
285.187	19
285.556	19
285.924	19
286.292	19
286.661	18
287.029	18
287.398	19
287.766	19
288.134	19
288.502	19
288.871	19
289.239	19
289.607	19
289.975	19
290.343	19
290.711	19
291.079	19
291.447	19
291.815	19
292.183	19
292.551	19
292.919	19
293.287	19
293.655	19
294.022	19
294.390	19
294.758	18
295.126	18
295.493	18
295.861	18
296.229	18
296.596	18
296.964	18
297.331	18
297.699	18
298.066	18
298.434	18
298.801	18
299.168	18
299.536	18
299.903	18
300.270	18
300.638	18
301.005	19
301.372	19
301.739	19
302.106	20
302.473	20
302.840	20
303.207	20
303.574	20
303.941	20
304.308	20
304.675	20
305.042	20
305.409	20
305.776	20
306.143	20
306.509	20
306.876	20
307.243	20
307.610	20
307.976	20
308.343	20
308.709	20
309.076	20
309.442	20
309.809	20
310.175	20
310.542	20
310.908	20
311.275	20
311.641	20
312.007	20
312.373	20
312.740	20
313.106	20
313.472	20
313.838	20
314.204	20
314.570	20
314.936	20
315.302	21
315.668	21
316.034	21
316.400	21
316.766	21
317.132	20
317.498	20
317.864	21
318.230	21
318.595	21
318.961	21
319.327	21
319.692	21
320.058	21
320.424	21
320.789	21
321.155	21
321.520	21
321.886	22
322.251	22
322.616	22
322.982	22
323.347	22
323.712	23
324.078	23
324.443	24
324.808	24
325.173	25
325.539	25
325.904	25
326.269	26
326.634	26
326.999	26
327.364	27
327.729	27
328.094	28
328.459	28
328.823	28
329.188	28
329.553	29
329.918	29
330.283	29
330.647	29
331.012	29
331.377	29
331.741	30
332.106	30
332.470	30
332.835	31
333.199	31
333.564	31
333.928	31
334.293	32
334.657	32
335.021	32
335.386	33
335.750	33
336.114	34
336.478	34
336.843	34
337.207	35
337.571	35
337.935	35
338.299	36
338.663	37
339.027	37
339.391	38
339.755	38
340.119	39
340.483	39
340.846	39
341.210	40
341.574	40
341.938	40
342.301	41
342.665	41
343.029	42
343.392	42
343.756	42
344.119	43
344.483	43
344.846	43
345.210	44
345.573	45
345.937	45
346.300	45
346.663	46
347.027	46
347.390	46
347.753	47
348.116	47
348.479	48
348.843	48
349.206	49
349.569	50
349.932	50
350.295	50
350.658	51
351.021	51
351.383	51
351.746	51
352.109	51
352.472	52
352.835	52
353.197	52
353.560	52
353.923	53
354.285	53
354.648	54
355.011	54
355.373	53
355.736	54
356.098	54
356.461	54
356.823	54
357.185	54
357.548	55
357.910	55
358.272	56
358.635	56
358.997	57
359.359	57
359.721	57
360.083	57
360.445	57
360.807	58
361.169	58
361.531	58
361.893	58
362.255	58
362.617	58
362.979	58
363.341	59
363.703	59
364.064	59
364.426	59
364.788	59
365.149	60
365.511	60
365.873	60
366.234	60
366.596	60
366.957	60
367.319	60
367.680	60
368.042	61
368.403	61
368.764	61
369.126	61
369.487	62
369.848	62
370.209	62
370.570	62
370.931	62
371.293	62
371.654	62
372.015	62
372.376	62
372.737	61
373.098	61
373.458	61
373.819	61
374.180	61
374.541	61
374.902	61
375.263	61
375.623	61
375.984	61
376.345	61
376.705	61
377.066	60
377.426	60
377.787	60
378.147	60
378.508	61
378.868	61
379.228	61
379.589	61
379.949	62
380.309	62
380.670	62
381.030	62
381.390	63
381.750	63
382.110	63
382.470	64
382.830	64
383.190	63
383.550	64
383.910	64
384.270	64
384.630	64
384.990	64
385.350	65
385.709	65
386.069	65
386.429	65
386.788	65
387.148	65
387.508	65
387.867	65
388.227	66
388.586	66
388.946	66
389.305	66
389.665	66
390.024	67
390.383	67
390.743	68
391.102	68
391.461	68
391.820	68
392.179	68
392.539	69
392.898	69
393.257	69
393.616	69
393.975	69
394.334	70
394.693	70
395.051	71
395.410	71
395.769	71
396.128	71
396.487	72
396.845	72
397.204	72
397.563	72
397.921	72
398.280	72
398.638	73
398.997	73
399.355	74
399.714	74
400.072	74
400.431	75
400.789	75
401.147	75
401.506	76
401.864	76
402.222	77
402.580	77
402.938	77
403.297	78
403.655	78
404.013	78
404.371	78
404.729	78
405.087	79
405.444	79
405.802	79
406.160	79
406.518	80
406.876	80
407.233	80
407.591	80
407.949	80
408.306	81
408.664	81
409.022	81
409.379	81
409.737	81
410.094	82
410.451	82
410.809	82
411.166	83
411.523	83
411.881	84
412.238	84
412.595	85
412.952	86
413.310	86
413.667	86
414.024	87
414.381	87
414.738	87
415.095	88
415.452	88
415.809	89
416.165	89
416.522	90
416.879	91
417.236	92
417.593	93
417.949	94
418.306	95
418.663	95
419.019	97
419.376	98
419.732	100
420.089	101
420.445	102
420.802	103
421.158	105
421.514	106
421.871	107
422.227	109
422.583	110
422.939	111
423.295	112
423.652	113
424.008	114
424.364	115
424.720	116
425.076	116
425.432	117
425.788	118
426.143	119
426.499	121
426.855	122
427.211	123
427.567	124
427.922	125
428.278	126
428.634	127
428.989	128
429.345	129
429.700	131
430.056	132
430.411	133
430.767	134
431.122	136
431.478	138
431.833	139
432.188	141
432.543	142
432.899	144
433.254	145
433.609	146
433.964	147
434.319	149
434.674	150
435.029	151
435.384	153
435.739	155
436.094	157
436.449	159
436.804	161
437.158	164
437.513	167
437.868	170
438.223	174
438.577	177
438.932	180
439.287	184
439.641	187
439.996	191
440.350	195
440.704	198
441.059	202
441.413	206
441.768	210
442.122	214
442.476	217
442.830	221
443.185	225
443.539	228
443.893	232
444.247	236
444.601	239
444.955	241
445.309	244
445.663	247
446.017	249
446.371	252
446.724	254
447.078	256
447.432	258
447.786	260
448.139	263
448.493	265
448.847	266
449.200	268
449.554	269
449.907	271
450.261	272
450.614	274
450.968	276
451.321	277
451.674	279
452.027	281
452.381	283
452.734	286
453.087	288
453.440	291
453.793	293
454.146	296
454.499	300
454.852	305
455.205	309
455.558	313
455.911	318
456.264	322
456.617	327
456.970	331
457.322	336
457.675	340
458.028	344
458.380	347
458.733	351
459.086	354
459.438	358
459.791	362
460.143	366
460.496	372
460.848	377
461.200	384
461.553	390
461.905	396
462.257	402
462.609	407
462.961	413
463.314	418
463.666	422
464.018	426
464.370	431
464.722	435
465.074	440
465.426	444
465.777	448
466.129	452
466.481	455
466.833	458
467.184	460
467.536	461
467.888	462
468.239	463
468.591	464
468.943	465
469.294	467
469.646	469
469.997	473
470.348	477
470.700	482
471.051	488
471.402	495
471.754	503
472.105	512
472.456	520
472.807	530
473.158	541
473.509	552
473.860	565
474.211	577
474.562	590
474.913	604
475.264	618
475.615	632
475.966	647
476.316	661
476.667	675
477.018	690
477.368	704
477.719	719
478.070	734
478.420	748
478.771	762
479.121	775
479.472	789
479.822	803
480.172	818
480.523	836
480.873	860
481.223	898
481.573	954
481.924	1025
482.274	1104
482.624	1188
482.974	1271
483.324	1345
483.674	1401
484.024	1440
484.374	1467
484.724	1485
485.073	1499
485.423	1510
485.773	1522
486.123	1533
486.472	1544
486.822	1554
487.172	1563
487.521	1571
487.871	1576
488.220	1575
488.570	1558
488.919	1524
489.268	1475
489.618	1417
489.967	1354
490.316	1291
490.666	1237
491.015	1199
491.364	1178
491.713	1169
492.062	1168
492.411	1172
492.760	1179
493.109	1186
493.458	1193
493.807	1200
494.156	1206
494.505	1212
494.853	1218
495.202	1226
495.551	1236
495.900	1245
496.248	1255
496.597	1265
496.945	1275
497.294	1285
497.642	1296
497.991	1307
498.339	1321
498.688	1334
499.036	1347
499.384	1360
499.732	1371
500.081	1380
500.429	1390
500.777	1399
501.125	1407
501.473	1416
501.821	1425
502.169	1433
502.517	1441
502.865	1446
503.213	1451
503.561	1456
503.908	1459
504.256	1463
504.604	1465
504.952	1467
505.299	1468
505.647	1468
505.994	1467
506.342	1466
506.689	1464
507.037	1463
507.384	1464
507.732	1465
508.079	1466
508.426	1468
508.774	1470
509.121	1471
509.468	1471
509.815	1472
510.162	1472
510.509	1473
510.856	1473
511.203	1472
511.550	1472
511.897	1472
512.244	1472
512.591	1472
512.938	1472
513.284	1472
513.631	1471
513.978	1470
514.324	1469
514.671	1467
515.018	1465
515.364	1464
515.711	1463
516.057	1462
516.403	1461
516.750	1460
517.096	1457
517.443	1454
517.789	1451
518.135	1448
518.481	1447
518.827	1445
519.173	1442
519.519	1441
519.865	1440
520.211	1439
520.557	1439
520.903	1439
521.249	1440
521.595	1440
521.941	1440
522.287	1441
522.632	1442
522.978	1442
523.324	1444
523.669	1446
524.015	1449
524.360	1455
524.706	1463
525.051	1471
525.397	1481
525.742	1492
526.087	1504
526.433	1515
526.778	1524
527.123	1532
527.468	1540
527.813	1546
528.158	1553
528.504	1562
528.849	1573
529.193	1587
529.538	1602
529.883	1620
530.228	1642
530.573	1664
530.918	1689
531.263	1713
531.607	1736
531.952	1757
532.296	1774
532.641	1789
532.986	1802
533.330	1814
533.675	1827
534.019	1843
534.363	1863
534.708	1885
535.052	1910
535.396	1938
535.741	1964
536.085	1987
536.429	2009
536.773	2028
537.117	2044
537.461	2059
537.805	2073
538.149	2088
538.493	2103
538.837	2119
539.181	2138
539.524	2161
539.868	2187
540.212	2215
540.556	2246
540.899	2277
541.243	2306
541.586	2331
541.930	2351
542.273	2367
542.617	2380
542.960	2395
543.304	2412
543.647	2434
543.990	2462
544.333	2492
544.677	2522
545.020	2551
545.363	2576
545.706	2597
546.049	2614
546.392	2625
546.735	2631
547.078	2636
547.421	2642
547.764	2649
548.106	2657
548.449	2669
548.792	2686
549.135	2708
549.477	2734
549.820	2760
550.162	2783
550.505	2802
550.847	2816
551.190	2827
551.532	2837
551.875	2846
552.217	2858
552.559	2872
552.901	2891
553.244	2912
553.586	2935
553.928	2960
554.270	2981
554.612	3000
554.954	3016
555.296	3029
555.638	3042
555.980	3056
556.322	3073
556.663	3096
557.005	3127
557.347	3165
557.689	3205
558.030	3244
558.372	3281
558.713	3315
559.055	3348
559.396	3380
559.738	3414
560.079	3450
560.421	3491
560.762	3537
561.103	3588
561.444	3645
561.786	3702
562.127	3764
562.468	3831
562.809	3904
563.150	3985
563.491	4073
563.832	4169
564.173	4279
564.514	4406
564.855	4557
565.195	4742
565.536	4963
565.877	5219
566.218	5510
566.558	5839
566.899	6200
567.239	6588
567.580	6997
567.920	7416
568.261	7839
568.601	8273
568.941	8723
569.282	9186
569.622	9666
569.962	10165
570.302	10699
570.643	11250
570.983	11805
571.323	12341
571.663	12858
572.003	13350
572.343	13812
572.683	14244
573.022	14686
573.362	15152
573.702	15632
574.042	16111
574.381	16572
574.721	17011
575.061	17433
575.400	17816
575.740	18155
576.079	18456
576.419	18757
576.758	19098
577.097	19502
577.437	19942
577.776	20412
578.115	20905
578.454	21404
578.794	21861
579.133	22214
579.472	22457
579.811	22599
580.150	22645
580.489	22619
580.828	22562
581.167	22509
581.505	22475
581.844	22450
582.183	22425
582.522	22417
582.860	22421
583.199	22424
583.538	22396
583.876	22298
584.215	22106
584.553	21810
584.891	21417
585.230	20934
585.568	20400
585.906	19859
586.245	19372
586.583	18953
586.921	18607
587.259	18292
587.597	17975
587.935	17646
588.273	17309
588.611	16996
588.949	16720
589.287	16489
589.625	16308
589.963	16166
590.300	16053
590.638	15949
590.976	15833
591.313	15696
591.651	15565
591.989	15451
592.326	15361
592.664	15283
593.001	15219
593.338	15181
593.676	15163
594.013	15175
594.350	15234
594.687	15332
595.025	15442
595.362	15541
595.699	15611
596.036	15657
596.373	15667
596.710	15638
597.047	15583
597.384	15514
597.720	15438
598.057	15376
598.394	15332
598.731	15308
599.067	15310
599.404	15339
599.741	15405
600.077	15497
600.414	15598
600.750	15704
601.087	15784
601.423	15824
601.759	15828
602.096	15803
602.432	15759
602.768	15692
603.104	15597
603.440	15479
603.776	15352
604.112	15215
604.448	15076
604.784	14929
605.120	14772
605.456	14620
605.792	14461
606.128	14293
606.463	14121
606.799	13948
607.135	13790
607.470	13635
607.806	13481
608.142	13330
608.477	13185
608.812	13046
609.148	12905
609.483	12758
609.819	12606
610.154	12461
610.489	12328
610.824	12213
611.159	12116
611.494	12017
611.830	11931
612.165	11846
612.500	11750
612.834	11639
613.169	11512
613.504	11373
613.839	11217
614.174	11040
614.509	10862
614.843	10684
615.178	10515
615.512	10349
615.847	10185
616.182	10022
616.516	9857
616.850	9683
617.185	9502
617.519	9318
617.853	9121
618.188	8916
618.522	8729
618.856	8571
619.190	8434
619.524	8314
619.858	8218
620.192	8142
620.526	8075
620.860	8009
621.194	7945
621.528	7883
621.862	7820
622.195	7745
622.529	7664
622.863	7580
623.196	7497
623.530	7412
623.864	7326
624.197	7239
624.530	7155
624.864	7080
625.197	7001
625.531	6911
625.864	6803
626.197	6687
626.530	6562
626.863	6420
627.196	6268
627.529	6113
627.862	5960
628.195	5809
628.528	5660
628.861	5516
629.194	5387
629.527	5264
629.860	5142
630.192	5022
630.525	4910
630.858	4806
631.190	4707
631.523	4612
631.855	4523
632.188	4446
632.520	4373
632.852	4305
633.185	4235
633.517	4168
633.849	4107
634.182	4051
634.514	3998
634.846	3950
635.178	3908
635.510	3871
635.842	3837
636.174	3804
636.506	3771
636.837	3738
637.169	3706
637.501	3672
637.833	3635
638.164	3592
638.496	3545
638.828	3492
639.159	3432
639.491	3367
639.822	3300
640.154	3232
640.485	3166
640.816	3099
641.147	3034
641.479	2970
641.810	2910
642.141	2850
642.472	2791
642.803	2733
643.134	2679
643.465	2631
643.796	2594
644.127	2568
644.458	2554
644.789	2554
645.119	2569
645.450	2592
645.781	2619
646.111	2645
646.442	2669
646.773	2687
647.103	2701
647.433	2714
647.764	2727
648.094	2745
648.425	2767
648.755	2794
649.085	2825
649.415	2857
649.745	2891
650.075	2926
650.405	2965
650.735	3050
651.065	3665
651.395	5573
651.725	8709
652.055	12343
652.385	15972
652.715	19601
653.044	23231
653.374	26867
653.704	30509
654.033	33566
654.363	35485
654.692	36760
655.022	37588
655.351	38132
655.680	38468
656.010	38651
656.339	38734
656.668	38756
656.997	38746
657.326	38713
657.655	38620
657.984	37985
658.313	36046
658.642	32871
658.971	29185
659.300	25500
659.629	21815
659.958	18132
660.286	14448
660.615	10766
660.944	7676
661.272	5728
661.601	4427
661.929	3569
662.258	2991
662.586	2614
662.915	2384
663.243	2251
663.571	2175
663.899	2130
664.228	2101
664.556	2082
664.884	2069
665.212	2060
665.540	2053
665.868	2050
666.196	2048
666.524	2047
666.852	2048
667.179	2056
667.507	2072
667.835	2095
668.162	2125
668.490	2163
668.818	2207
669.145	2254
669.473	2300
669.800	2344
670.127	2382
670.455	2413
670.782	2440
671.109	2463
671.436	2483
671.764	2498
672.091	2512
672.418	2523
672.745	2532
673.072	2542
673.399	2553
673.726	2566
674.053	2576
674.379	2579
674.706	2578
675.033	2577
675.359	2573
675.686	2567
676.013	2565
676.339	2566
676.666	2574
676.992	2594
677.318	2619
677.645	2650
677.971	2678
678.297	2704
678.624	2729
678.950	2752
679.276	2774
679.602	2796
679.928	2819
680.254	2847
680.580	2882
680.906	2928
681.232	2984
681.558	3043
681.883	3101
682.209	3155
682.535	3205
682.860	3250
683.186	3289
683.511	3320
683.837	3339
684.162	3355
684.488	3367
684.813	3379
685.138	3391
685.464	3401
685.789	3410
686.114	3419
686.439	3430
686.764	3443
687.089	3452
687.414	3453
687.739	3442
688.064	3421
688.389	3395
688.714	3364
689.039	3331
689.363	3295
689.688	3256
690.013	3219
690.337	3185
690.662	3157
690.986	3132
691.311	3107
691.635	3082
691.959	3059
692.284	3043
692.608	3038
692.932	3044
693.256	3055
693.580	3068
693.904	3084
694.228	3104
694.552	3121
694.876	3130
695.200	3127
695.524	3114
695.848	3094
696.172	3069
696.495	3043
696.819	3015
697.143	2988
697.466	2959
697.790	2934
698.113	2917
698.437	2909
698.760	2908
699.083	2906
699.407	2899
699.730	2884
700.053	2860
700.376	2828
700.699	2783
701.022	2726
701.345	2663
701.668	2605
701.991	2557
702.314	2523
702.637	2509
702.960	2515
703.283	2542
703.605	2588
703.928	2651
704.251	2722
704.573	2793
704.896	2857
705.218	2909
705.540	2950
705.863	2984
706.185	3011
706.507	3035
706.830	3057
707.152	3081
707.474	3107
707.796	3135
708.118	3165
708.440	3194
708.762	3219
709.084	3240
709.406	3251
709.728	3253
710.049	3247
710.371	3233
710.693	3212
711.014	3189
711.336	3167
711.658	3146
711.979	3128
712.301	3112
712.622	3094
712.943	3073
713.265	3047
713.586	3020
713.907	2994
714.228	2971
714.549	2953
714.870	2940
715.191	2934
715.512	2933
715.833	2929
716.154	2922
716.475	2910
716.796	2891
717.117	2864
717.437	2833
717.758	2797
718.078	2760
718.399	2724
718.719	2693
719.040	2666
719.360	2645
719.681	2629
720.001	2620
720.321	2614
720.642	2611
720.962	2614
721.282	2621
721.602	2629
721.922	2640
722.242	2653
722.562	2670
722.882	2691
723.202	2710
723.521	2728
723.841	2746
724.161	2765
724.481	2784
724.800	2803
725.120	2828
725.439	2858
725.759	2893
726.078	2931
726.398	2978
726.717	3036
727.036	3102
727.355	3171
727.675	3238
727.994	3302
728.313	3364
728.632	3416
728.951	3460
729.270	3498
729.589	3534
729.908	3578
730.226	3628
730.545	3683
730.864	3742
731.182	3806
731.501	3871
731.820	3932
732.138	3986
732.457	4033
732.775	4076
733.093	4111
733.412	4132
733.730	4137
734.048	4128
734.367	4110
734.685	4086
735.003	4058
735.321	4034
735.639	4014
735.957	3998
736.275	3984
736.593	3962
736.910	3929
737.228	3882
737.546	3823
737.863	3753
738.181	3675
738.499	3594
738.816	3514
739.134	3436
739.451	3356
739.768	3276
740.086	3199
740.403	3127
740.720	3061
741.038	2999
741.355	2939
741.672	2879
741.989	2818
742.306	2755
742.623	2689
742.940	2626
743.257	2567
743.573	2516
743.890	2474
744.207	2443
744.523	2422
744.840	2408
745.157	2399
745.473	2398
745.790	2407
746.106	2426
746.422	2454
746.739	2490
747.055	2533
747.371	2581
747.687	2632
748.004	2680
748.320	2721
748.636	2759
748.952	2797
749.268	2835
749.584	2871
749.899	2904
750.215	2937
750.531	2976
750.847	3018
751.162	3060
751.478	3102
751.793	3145
752.109	3191
752.424	3240
752.740	3290
753.055	3347
753.370	3416
753.686	3495
754.001	3581
754.316	3671
754.631	3765
754.946	3867
755.261	3973
755.576	4076
755.891	4176
756.206	4275
756.521	4379
756.836	4485
757.150	4587
757.465	4676
757.780	4753
758.094	4818
758.409	4868
758.723	4899
759.038	4913
759.352	4914
759.667	4900
759.981	4875
760.295	4851
760.609	4832
760.923	4821
761.238	4814
761.552	4809
761.866	4803
762.180	4793
762.493	4767
762.807	4717
763.121	4640
763.435	4544
763.749	4439
764.062	4341
764.376	4259
764.689	4202
765.003	4172
765.316	4167
765.630	4182
765.943	4205
766.257	4234
766.570	4258
766.883	4264
767.196	4254
767.509	4227
767.822	4186
768.135	4135
768.448	4078
768.761	4019
769.074	3967
769.387	3928
769.700	3903
770.013	3889
770.325	3876
770.638	3858
770.950	3826
771.263	3774
771.575	3703
771.888	3611
772.200	3505
772.513	3390
772.825	3269
773.137	3145
773.449	3023
773.761	2905
774.074	2795
774.386	2698
774.698	2616
775.010	2549
775.321	2501
775.633	2469
775.945	2451
776.257	2441
776.568	2438
776.880	2445
777.192	2464
777.503	2491
777.815	2525
778.126	2567
778.438	2619
778.749	2674
779.060	2728
779.372	2778
779.683	2827
779.994	2872
780.305	2906
780.616	2929
780.927	2945
781.238	2950
781.549	2943
781.860	2923
782.171	2896
782.481	2866
782.792	2836
783.103	2806
783.413	2773
783.724	2738
784.034	2704
784.345	2674
784.655	2645
784.966	2617
785.276	2587
785.586	2558
785.896	2528
786.207	2497
786.517	2465
786.827	2433
787.137	2403
787.447	2374
787.757	2345
788.066	2319
788.376	2293
788.686	2268
788.996	2242
789.305	2216
789.615	2195
789.925	2183
790.234	2180
790.544	2186
790.853	2196
791.162	2207
791.472	2216
791.781	2220
792.090	2215
792.399	2201
792.708	2180
793.017	2156
793.326	2134
793.635	2113
793.944	2093
794.253	2076
794.562	2064
794.871	2056
795.179	2051
795.488	2044
795.797	2033
796.105	2014
796.414	1984
796.722	1943
797.031	1890
797.339	1828
797.647	1757
797.956	1683
798.264	1615
798.572	1559
798.880	1515
799.188	1482
799.496	1458
799.804	1440
800.112	1426
800.420	1415
800.728	1403
801.035	1388
801.343	1372
801.651	1359
801.958	1355
802.266	1360
802.573	1371
802.881	1385
803.188	1403
803.496	1423
803.803	1443
804.110	1462
804.417	1478
804.724	1492
805.032	1506
805.339	1517
805.646	1524
805.953	1528
806.259	1528
806.566	1526
806.873	1521
807.180	1513
807.486	1504
807.793	1494
808.100	1479
808.406	1454
808.713	1420
809.019	1382
809.326	1343
809.632	1305
809.938	1271
810.244	1239
810.551	1212
810.857	1190
811.163	1170
811.469	1149
811.775	1126
812.081	1103
812.387	1082
812.692	1065
812.998	1052
813.304	1042
813.610	1033
813.915	1026
814.221	1021
814.526	1016
814.832	1011
815.137	1007
815.443	1000
815.748	990
816.053	976
816.358	963
816.664	950
816.969	938
817.274	928
817.579	920
817.884	915
818.189	914
818.493	913
818.798	911
819.103	905
819.408	896
819.712	886
820.017	875
820.321	862
820.626	850
820.930	840
821.235	833
821.539	829
821.843	829
822.148	831
822.452	832
822.756	831
823.060	828
823.364	823
823.668	815
823.972	807
824.276	798
824.580	791
824.883	787
825.187	785
825.491	785
825.795	785
826.098	785
826.402	784
826.705	781
827.008	775
827.312	767
827.615	754
827.918	738
828.222	720
828.525	702
828.828	685
829.131	667
829.434	650
829.737	634
830.040	621
830.343	611
830.645	602
830.948	593
831.251	583
831.553	576
831.856	570
832.159	563
832.461	556
832.764	548
833.066	540
833.368	534
833.671	529
833.973	526
834.275	522
834.577	519
834.879	514
835.181	509
835.483	503
835.785	496
836.087	488
836.389	477
836.690	465
836.992	453
837.294	439
837.595	425
837.897	410
838.198	396
838.500	382
838.801	369
839.103	359
839.404	350
839.705	342
840.006	335
840.307	330
840.608	326
840.910	323
841.210	322
841.511	319
841.812	316
842.113	312
842.414	308
842.715	302
843.015	296
843.316	289
843.616	283
843.917	278
844.217	273
844.518	269
844.818	265
845.118	263
845.419	262
845.719	260
846.019	259
846.319	257
846.619	257
846.919	255
847.219	254
847.519	252
847.819	251
848.118	251
848.418	254
848.718	262
849.017	275
849.317	293
849.616	314
849.916	339
850.215	367
850.515	397
850.814	426
851.113	453
851.412	478
851.712	500
852.011	520
852.310	539
852.609	556
852.908	570
853.206	584
853.505	596
853.804	606
854.103	616
854.401	622
854.700	625
854.999	623
855.297	615
855.595	602
855.894	584
856.192	564
856.491	539
856.789	512
857.087	485
857.385	459
857.683	436
857.981	414
858.279	395
858.577	377
858.875	361
859.173	349
859.471	338
859.768	329
860.066	322
860.363	315
860.661	310
860.959	306
861.256	301
861.553	297
861.851	291
862.148	285
862.445	279
862.742	274
863.039	270
863.337	266
863.634	263
863.931	261
864.227	259
864.524	259
864.821	259
865.118	258
865.415	255
865.711	252
866.008	248
866.304	243
866.601	239
866.897	235
867.194	231
867.490	229
867.786	228
868.082	228
868.379	228
868.675	229
868.971	229
869.267	229
869.563	229
869.859	228
870.154	227
870.450	226
870.746	226
871.042	225
871.337	224
871.633	225
871.928	226
872.224	227
872.519	229
872.815	231
873.110	231
873.405	231
873.700	231
873.995	230
874.291	230
874.586	231
874.881	233
875.175	235
875.470	239
875.765	243
876.060	248
876.355	253
876.649	257
876.944	262
877.238	267
877.533	270
877.827	274
878.122	276
878.416	277
878.710	276
879.005	276
879.299	274
879.593	273
879.887	272
880.181	271
880.475	269
880.769	267
881.063	264
881.356	261
881.650	258
881.944	254
882.238	211
882.531	202
882.825	199
883.118	203
883.412	202
883.705	200
883.998	207
884.291	212
884.585	215
884.878	228
>>>>>>>>>> END of Data <<<<<<<<<<