Date	2021年06月15日火曜日 04時58分15秒
Spectrometers	USB2+H05879
ダーク	使用
リファレンス	使用
積分時間[msec]	10
平均回数	280
ｽﾑｰｼﾞﾝｸﾞ	10
Electrical Dark	USE
ピクセル数	2048
計測モード	吸光度
保存開始波長[nm]	190.664
保存終了波長[nm]	884.878
保存ﾋﾟｯﾁ波長[nm]	全波長

>>>>>>>>>> Data Start <<<<<<<<<<<<
190.664	0.000000
191.040	0.000000
191.415	0.000000
191.791	-2.093465
192.166	-0.434794
192.542	-0.882784
192.917	0.000000
193.293	-0.571455
193.668	-0.680655
194.044	-1.126879
194.419	0.000000
194.794	-1.410190
195.170	-1.336407
195.545	-1.253761
195.920	-1.132035
196.296	-1.016008
196.671	-0.849475
197.046	-0.687584
197.421	-0.627212
197.796	-0.611867
198.171	-0.574696
198.546	-0.527938
198.922	-0.472069
199.297	-0.443720
199.672	-0.413936
200.047	-0.390200
200.422	-0.361246
200.796	-0.346945
201.171	-0.336676
201.546	-0.335567
201.921	-0.323139
202.296	-0.308289
202.671	-0.277594
203.045	-0.249070
203.420	-0.231879
203.795	-0.212005
204.170	-0.203294
204.544	-0.199800
204.919	-0.203365
205.294	-0.202058
205.668	-0.188083
206.043	-0.173818
206.417	-0.176694
206.792	-0.169228
207.166	-0.168237
207.541	-0.161417
207.915	-0.168366
208.289	-0.157361
208.664	-0.156635
209.038	-0.148671
209.412	-0.132035
209.787	-0.119987
210.161	-0.109372
210.535	-0.106787
210.909	-0.095062
211.284	-0.094194
211.658	-0.095502
212.032	-0.099708
212.406	-0.108330
212.780	-0.111157
213.154	-0.107756
213.528	-0.107269
213.902	-0.104453
214.276	-0.095953
214.650	-0.104376
215.024	-0.099150
215.398	-0.101199
215.772	-0.081884
216.145	-0.077225
216.519	-0.064413
216.893	-0.067606
217.267	-0.079794
217.640	-0.086937
218.014	-0.078741
218.388	-0.070777
218.761	-0.078946
219.135	-0.061435
219.508	-0.067687
219.882	-0.071442
220.256	-0.061185
220.629	-0.051737
221.003	-0.049000
221.376	-0.053461
221.749	-0.056036
222.123	-0.059484
222.496	-0.049975
222.869	-0.046767
223.243	-0.045223
223.616	-0.054031
223.989	-0.064345
224.362	-0.069126
224.736	-0.070161
225.109	-0.060964
225.482	-0.051797
225.855	-0.054098
226.228	-0.059089
226.601	-0.058567
226.974	-0.063002
227.347	-0.055361
227.720	-0.055784
228.093	-0.060157
228.466	-0.065490
228.839	-0.064854
229.212	-0.074341
229.585	-0.085736
229.957	-0.083942
230.330	-0.085233
230.703	-0.081944
231.076	-0.087216
231.448	-0.087324
231.821	-0.089560
232.194	-0.088720
232.566	-0.085944
232.939	-0.090360
233.311	-0.098344
233.684	-0.092540
234.056	-0.095992
234.429	-0.090122
234.801	-0.087665
235.174	-0.085934
235.546	-0.079730
235.918	-0.081852
236.291	-0.083172
236.663	-0.081995
237.035	-0.066837
237.408	-0.052171
237.780	-0.045338
238.152	-0.044924
238.524	-0.054229
238.896	-0.045745
239.268	-0.042021
239.641	-0.040748
240.013	-0.030755
240.385	-0.030557
240.757	-0.024445
241.129	-0.015169
241.500	-0.015183
241.872	-0.008881
242.244	-0.009241
242.616	-0.019699
242.988	-0.014567
243.360	-0.005877
243.731	0.009810
244.103	0.012556
244.475	0.010212
244.847	0.006917
245.218	0.007001
245.590	0.010625
245.961	0.015903
246.333	0.014500
246.705	0.007017
247.076	0.012309
247.448	0.017851
247.819	0.015860
248.190	0.021454
248.562	0.019795
248.933	0.019922
249.305	0.019792
249.676	0.027550
250.047	0.020660
250.418	0.031022
250.790	0.027738
251.161	0.021438
251.532	0.016590
251.903	0.022540
252.274	0.030434
252.645	0.041183
253.016	0.041521
253.387	0.028957
253.758	0.028581
254.129	0.031717
254.500	0.039525
254.871	0.038257
255.242	0.041238
255.613	0.037375
255.984	0.034409
256.355	0.038104
256.725	0.034048
257.096	0.034792
257.467	0.026587
257.838	0.038049
258.208	0.035029
258.579	0.039753
258.949	0.036559
259.320	0.034699
259.690	0.032561
260.061	0.035065
260.431	0.037164
260.802	0.033644
261.172	0.041863
261.543	0.044127
261.913	0.049194
262.283	0.047687
262.654	0.040032
263.024	0.032799
263.394	0.034978
263.764	0.037650
264.135	0.036093
264.505	0.035100
264.875	0.041478
265.245	0.049290
265.615	0.044659
265.985	0.046957
266.355	0.043945
266.725	0.046208
267.095	0.044177
267.465	0.046107
267.835	0.040042
268.205	0.032069
268.575	0.041908
268.944	0.049677
269.314	0.048218
269.684	0.052302
270.054	0.047129
270.423	0.051389
270.793	0.055912
271.163	0.055101
271.532	0.055924
271.902	0.061406
272.271	0.069115
272.641	0.064082
273.010	0.054623
273.380	0.054430
273.749	0.054299
274.119	0.058125
274.488	0.066521
274.857	0.073708
275.227	0.068333
275.596	0.070097
275.965	0.074862
276.335	0.067260
276.704	0.060224
277.073	0.059938
277.442	0.060434
277.811	0.062486
278.180	0.068186
278.549	0.069686
278.918	0.069344
279.287	0.070778
279.656	0.073076
280.025	0.068905
280.394	0.063901
280.763	0.071097
281.132	0.081301
281.501	0.087214
281.869	0.084219
282.238	0.084326
282.607	0.077667
282.976	0.082272
283.344	0.079611
283.713	0.073463
284.081	0.077622
284.450	0.084130
284.819	0.085031
285.187	0.087426
285.556	0.097651
285.924	0.091729
286.292	0.090845
286.661	0.088943
287.029	0.088231
287.398	0.087585
287.766	0.089067
288.134	0.095057
288.502	0.090110
288.871	0.085270
289.239	0.082178
289.607	0.084952
289.975	0.082348
290.343	0.085150
290.711	0.082845
291.079	0.077840
291.447	0.080966
291.815	0.081076
292.183	0.078603
292.551	0.073448
292.919	0.072732
293.287	0.069346
293.655	0.073211
294.022	0.074153
294.390	0.078775
294.758	0.080700
295.126	0.077036
295.493	0.079551
295.861	0.087728
296.229	0.090462
296.596	0.091205
296.964	0.089080
297.331	0.088029
297.699	0.089332
298.066	0.095232
298.434	0.100510
298.801	0.107810
299.168	0.116023
299.536	0.119388
299.903	0.119595
300.270	0.135829
300.638	0.141275
301.005	0.152140
301.372	0.157009
301.739	0.160167
302.106	0.168793
302.473	0.179287
302.840	0.190661
303.207	0.204371
303.574	0.213509
303.941	0.223229
304.308	0.235535
304.675	0.248144
305.042	0.268559
305.409	0.289321
305.776	0.305816
306.143	0.329959
306.509	0.351757
306.876	0.376831
307.243	0.400063
307.610	0.430989
307.976	0.447452
308.343	0.473267
308.709	0.495948
309.076	0.527026
309.442	0.560252
309.809	0.586629
310.175	0.617660
310.542	0.642376
310.908	0.666275
311.275	0.691134
311.641	0.724226
312.007	0.745732
312.373	0.780232
312.740	0.804146
313.106	0.829550
313.472	0.863189
313.838	0.888470
314.204	0.912064
314.570	0.929129
314.936	0.949353
315.302	0.969143
315.668	0.992361
316.034	1.020268
316.400	1.049297
316.766	1.071818
317.132	1.097167
317.498	1.119982
317.864	1.132421
318.230	1.149620
318.595	1.168125
318.961	1.182734
319.327	1.204555
319.692	1.220815
320.058	1.223411
320.424	1.236457
320.789	1.249330
321.155	1.257519
321.520	1.271406
321.886	1.292511
322.251	1.307004
322.616	1.321464
322.982	1.332026
323.347	1.342221
323.712	1.350990
324.078	1.358180
324.443	1.364943
324.808	1.370734
325.173	1.376961
325.539	1.384458
325.904	1.392758
326.269	1.402065
326.634	1.409094
326.999	1.412278
327.364	1.418091
327.729	1.429879
328.094	1.435684
328.459	1.441691
328.823	1.445474
329.188	1.451687
329.553	1.450789
329.918	1.455130
330.283	1.459617
330.647	1.464389
331.012	1.469085
331.377	1.470707
331.741	1.472912
332.106	1.476469
332.470	1.478903
332.835	1.480721
333.199	1.483141
333.564	1.485421
333.928	1.485670
334.293	1.488814
334.657	1.488201
335.021	1.491228
335.386	1.490275
335.750	1.490429
336.114	1.489990
336.478	1.491450
336.843	1.488998
337.207	1.489335
337.571	1.490016
337.935	1.489722
338.299	1.487720
338.663	1.484397
339.027	1.484399
339.391	1.484744
339.755	1.483998
340.119	1.482501
340.483	1.481216
340.846	1.482073
341.210	1.483072
341.574	1.482537
341.938	1.479888
342.301	1.480857
342.665	1.480638
343.029	1.480901
343.392	1.481967
343.756	1.482293
344.119	1.480821
344.483	1.481480
344.846	1.481754
345.210	1.481896
345.573	1.481661
345.937	1.481490
346.300	1.483166
346.663	1.483537
347.027	1.483375
347.390	1.482432
347.753	1.482483
348.116	1.483875
348.479	1.482702
348.843	1.480578
349.206	1.480289
349.569	1.480721
349.932	1.480862
350.295	1.480644
350.658	1.481356
351.021	1.482401
351.383	1.483629
351.746	1.484353
352.109	1.485278
352.472	1.484412
352.835	1.483799
353.197	1.483666
353.560	1.485278
353.923	1.483757
354.285	1.483330
354.648	1.482738
355.011	1.483271
355.373	1.483905
355.736	1.483621
356.098	1.484124
356.461	1.484750
356.823	1.485098
357.185	1.485859
357.548	1.485890
357.910	1.485711
358.272	1.485111
358.635	1.483559
358.997	1.482227
359.359	1.483027
359.721	1.481926
360.083	1.483793
360.445	1.483620
360.807	1.484122
361.169	1.483382
361.531	1.485012
361.893	1.485048
362.255	1.486259
362.617	1.487073
362.979	1.486955
363.341	1.486565
363.703	1.487329
364.064	1.488154
364.426	1.488940
364.788	1.488540
365.149	1.488668
365.511	1.489251
365.873	1.489125
366.234	1.489727
366.596	1.490014
366.957	1.490278
367.319	1.491231
367.680	1.491053
368.042	1.490994
368.403	1.491516
368.764	1.492104
369.126	1.491287
369.487	1.491985
369.848	1.492312
370.209	1.492827
370.570	1.493411
370.931	1.494416
371.293	1.494302
371.654	1.494482
372.015	1.495088
372.376	1.496319
372.737	1.496008
373.098	1.496490
373.458	1.498340
373.819	1.499701
374.180	1.501332
374.541	1.501565
374.902	1.501389
375.263	1.502408
375.623	1.503746
375.984	1.505570
376.345	1.506544
376.705	1.508921
377.066	1.509784
377.426	1.509559
377.787	1.509970
378.147	1.510978
378.508	1.511272
378.868	1.512543
379.228	1.513242
379.589	1.512929
379.949	1.513563
380.309	1.515390
380.670	1.515703
381.030	1.515224
381.390	1.515990
381.750	1.515653
382.110	1.515999
382.470	1.517337
382.830	1.517740
383.190	1.519087
383.550	1.518917
383.910	1.519952
384.270	1.519866
384.630	1.520363
384.990	1.522177
385.350	1.522929
385.709	1.522777
386.069	1.524090
386.429	1.524574
386.788	1.525892
387.148	1.527761
387.508	1.529441
387.867	1.530134
388.227	1.531165
388.586	1.532648
388.946	1.533319
389.305	1.534947
389.665	1.536773
390.024	1.537349
390.383	1.538183
390.743	1.538486
391.102	1.538965
391.461	1.538769
391.820	1.540179
392.179	1.540851
392.539	1.540647
392.898	1.542025
393.257	1.543654
393.616	1.545155
393.975	1.545831
394.334	1.546812
394.693	1.547297
395.051	1.547297
395.410	1.547948
395.769	1.549765
396.128	1.550590
396.487	1.550914
396.845	1.550926
397.204	1.550490
397.563	1.551021
397.921	1.551585
398.280	1.551479
398.638	1.551355
398.997	1.552204
399.355	1.551540
399.714	1.552065
400.072	1.552328
400.431	1.551355
400.789	1.551068
401.147	1.550406
401.506	1.550522
401.864	1.549952
402.222	1.549540
402.580	1.549083
402.938	1.549453
403.297	1.548389
403.655	1.547612
404.013	1.547821
404.371	1.548391
404.729	1.548940
405.087	1.548668
405.444	1.548684
405.802	1.548641
406.160	1.549323
406.518	1.549121
406.876	1.549472
407.233	1.549102
407.591	1.549655
407.949	1.550678
408.306	1.550790
408.664	1.550986
409.022	1.551718
409.379	1.551901
409.737	1.551954
410.094	1.551921
410.451	1.552016
410.809	1.552036
411.166	1.552388
411.523	1.552261
411.881	1.552569
412.238	1.552305
412.595	1.552333
412.952	1.552447
413.310	1.552665
413.667	1.552952
414.024	1.553545
414.381	1.553981
414.738	1.554222
415.095	1.553807
415.452	1.553298
415.809	1.553424
416.165	1.553658
416.522	1.553095
416.879	1.552933
417.236	1.553299
417.593	1.553298
417.949	1.552758
418.306	1.553257
418.663	1.554303
419.019	1.554456
419.376	1.554086
419.732	1.554223
420.089	1.555315
420.445	1.555248
420.802	1.556037
421.158	1.555281
421.514	1.555097
421.871	1.554450
422.227	1.554098
422.583	1.554126
422.939	1.553339
423.295	1.552881
423.652	1.552412
424.008	1.552055
424.364	1.552101
424.720	1.552276
425.076	1.552221
425.432	1.551918
425.788	1.552071
426.143	1.551573
426.499	1.551762
426.855	1.551146
427.211	1.550402
427.567	1.549294
427.922	1.549233
428.278	1.547424
428.634	1.547681
428.989	1.546797
429.345	1.546768
429.700	1.546399
430.056	1.546494
430.411	1.547141
430.767	1.547043
431.122	1.546221
431.478	1.545606
431.833	1.544978
432.188	1.543916
432.543	1.543763
432.899	1.543295
433.254	1.541541
433.609	1.540095
433.964	1.538725
434.319	1.537887
434.674	1.536813
435.029	1.535834
435.384	1.534476
435.739	1.534212
436.094	1.533709
436.449	1.533092
436.804	1.532317
437.158	1.531608
437.513	1.530516
437.868	1.528680
438.223	1.527731
438.577	1.527001
438.932	1.526948
439.287	1.526032
439.641	1.524813
439.996	1.522871
440.350	1.521410
440.704	1.520922
441.059	1.520146
441.413	1.518459
441.768	1.517187
442.122	1.516726
442.476	1.515170
442.830	1.513685
443.185	1.512548
443.539	1.510385
443.893	1.508716
444.247	1.506556
444.601	1.505311
444.955	1.502861
445.309	1.501619
445.663	1.499689
446.017	1.497634
446.371	1.494638
446.724	1.492339
447.078	1.490369
447.432	1.488526
447.786	1.486430
448.139	1.483297
448.493	1.480841
448.847	1.478553
449.200	1.475686
449.554	1.472806
449.907	1.470597
450.261	1.467694
450.614	1.464458
450.968	1.461897
451.321	1.459043
451.674	1.456081
452.027	1.452457
452.381	1.449655
452.734	1.446401
453.087	1.443428
453.440	1.440154
453.793	1.437073
454.146	1.433813
454.499	1.430652
454.852	1.427338
455.205	1.424432
455.558	1.421930
455.911	1.419069
456.264	1.415613
456.617	1.413090
456.970	1.410290
457.322	1.407286
457.675	1.405167
458.028	1.402609
458.380	1.399494
458.733	1.396337
459.086	1.394048
459.438	1.391510
459.791	1.388417
460.143	1.385429
460.496	1.382416
460.848	1.379324
461.200	1.376219
461.553	1.372861
461.905	1.370168
462.257	1.367495
462.609	1.364438
462.961	1.361570
463.314	1.358173
463.666	1.355682
464.018	1.352757
464.370	1.349888
464.722	1.346723
465.074	1.343190
465.426	1.340370
465.777	1.337540
466.129	1.334845
466.481	1.331919
466.833	1.329064
467.184	1.326742
467.536	1.323457
467.888	1.320518
468.239	1.317933
468.591	1.314807
468.943	1.311277
469.294	1.307389
469.646	1.303821
469.997	1.300278
470.348	1.296559
470.700	1.293274
471.051	1.290245
471.402	1.287040
471.754	1.283940
472.105	1.281378
472.456	1.278858
472.807	1.276135
473.158	1.273469
473.509	1.271299
473.860	1.268597
474.211	1.265947
474.562	1.263290
474.913	1.261073
475.264	1.258440
475.615	1.255830
475.966	1.253498
476.316	1.251268
476.667	1.248729
477.018	1.246622
477.368	1.244349
477.719	1.241978
478.070	1.239555
478.420	1.237181
478.771	1.234723
479.121	1.232184
479.472	1.229685
479.822	1.227089
480.172	1.224699
480.523	1.222327
480.873	1.219477
481.223	1.216411
481.573	1.213515
481.924	1.210553
482.274	1.207847
482.624	1.205361
482.974	1.203115
483.324	1.201252
483.674	1.199708
484.024	1.198239
484.374	1.196755
484.724	1.195040
485.073	1.193465
485.423	1.192027
485.773	1.190435
486.123	1.189031
486.472	1.187426
486.822	1.185926
487.172	1.184548
487.521	1.182923
487.871	1.181285
488.220	1.179685
488.570	1.178002
488.919	1.175824
489.268	1.173271
489.618	1.170381
489.967	1.167116
490.316	1.163439
490.666	1.159484
491.015	1.155706
491.364	1.152318
491.713	1.148876
492.062	1.146050
492.411	1.143374
492.760	1.140634
493.109	1.138021
493.458	1.135252
493.807	1.132911
494.156	1.130104
494.505	1.127308
494.853	1.124802
495.202	1.122159
495.551	1.119449
495.900	1.117001
496.248	1.114371
496.597	1.111773
496.945	1.109324
497.294	1.106868
497.642	1.104388
497.991	1.101870
498.339	1.099249
498.688	1.096806
499.036	1.094474
499.384	1.092145
499.732	1.089641
500.081	1.087202
500.429	1.084523
500.777	1.082008
501.125	1.079471
501.473	1.077121
501.821	1.074660
502.169	1.072199
502.517	1.069976
502.865	1.067840
503.213	1.065425
503.561	1.063152
503.908	1.060968
504.256	1.058642
504.604	1.056330
504.952	1.054036
505.299	1.051732
505.647	1.049572
505.994	1.047147
506.342	1.044818
506.689	1.042353
507.037	1.040172
507.384	1.037685
507.732	1.035627
508.079	1.033474
508.426	1.031310
508.774	1.029095
509.121	1.027136
509.468	1.025207
509.815	1.023065
510.162	1.020898
510.509	1.018761
510.856	1.016761
511.203	1.014755
511.550	1.012570
511.897	1.010512
512.244	1.008495
512.591	1.006410
512.938	1.004413
513.284	1.002464
513.631	1.000291
513.978	0.998477
514.324	0.996471
514.671	0.994670
515.018	0.992644
515.364	0.990787
515.711	0.988819
516.057	0.986936
516.403	0.984866
516.750	0.982925
517.096	0.980950
517.443	0.979093
517.789	0.977314
518.135	0.975425
518.481	0.973543
518.827	0.971937
519.173	0.970172
519.519	0.968419
519.865	0.966666
520.211	0.964957
520.557	0.963053
520.903	0.961343
521.249	0.959486
521.595	0.957648
521.941	0.955762
522.287	0.953813
522.632	0.951802
522.978	0.950043
523.324	0.948353
523.669	0.946522
524.015	0.944546
524.360	0.942776
524.706	0.940957
525.051	0.939238
525.397	0.937499
525.742	0.935877
526.087	0.934157
526.433	0.932479
526.778	0.930872
527.123	0.929343
527.468	0.927615
527.813	0.926136
528.158	0.924420
528.504	0.922759
528.849	0.921028
529.193	0.919390
529.538	0.917720
529.883	0.915969
530.228	0.914063
530.573	0.912212
530.918	0.910527
531.263	0.908868
531.607	0.907153
531.952	0.905414
532.296	0.903530
532.641	0.901907
532.986	0.900097
533.330	0.898314
533.675	0.896662
534.019	0.894706
534.363	0.892733
534.708	0.891054
535.052	0.889084
535.396	0.887332
535.741	0.885591
536.085	0.883725
536.429	0.881755
536.773	0.879843
537.117	0.877834
537.461	0.875719
537.805	0.873454
538.149	0.871152
538.493	0.868825
538.837	0.866644
539.181	0.864200
539.524	0.861943
539.868	0.859528
540.212	0.857154
540.556	0.854792
540.899	0.852356
541.243	0.850144
541.586	0.847854
541.930	0.845219
542.273	0.842854
542.617	0.840386
542.960	0.837755
543.304	0.835099
543.647	0.832377
543.990	0.829646
544.333	0.826853
544.677	0.824215
545.020	0.821509
545.363	0.818739
545.706	0.816016
546.049	0.813150
546.392	0.810554
546.735	0.807842
547.078	0.804848
547.421	0.801913
547.764	0.798894
548.106	0.795784
548.449	0.792337
548.792	0.789217
549.135	0.786000
549.477	0.782717
549.820	0.779563
550.162	0.776291
550.505	0.773004
550.847	0.769656
551.190	0.766107
551.532	0.762484
551.875	0.758607
552.217	0.754774
552.559	0.751092
552.901	0.747301
553.244	0.743546
553.586	0.739885
553.928	0.736221
554.270	0.732890
554.612	0.729495
554.954	0.726027
555.296	0.722436
555.638	0.718877
555.980	0.714877
556.322	0.710808
556.663	0.706654
557.005	0.702191
557.347	0.697938
557.689	0.693735
558.030	0.689624
558.372	0.685520
558.713	0.681471
559.055	0.677430
559.396	0.673310
559.738	0.668953
560.079	0.664667
560.421	0.660484
560.762	0.656321
561.103	0.652172
561.444	0.648075
561.786	0.643938
562.127	0.639888
562.468	0.635844
562.809	0.631738
563.150	0.627438
563.491	0.623043
563.832	0.618432
564.173	0.613800
564.514	0.608992
564.855	0.604041
565.195	0.599030
565.536	0.593997
565.877	0.589009
566.218	0.584154
566.558	0.579413
566.899	0.574871
567.239	0.570456
567.580	0.566365
567.920	0.562598
568.261	0.559091
568.601	0.555683
568.941	0.552425
569.282	0.549304
569.622	0.546203
569.962	0.543063
570.302	0.539996
570.643	0.536984
570.983	0.534149
571.323	0.531388
571.663	0.528702
572.003	0.525999
572.343	0.523295
572.683	0.520452
573.022	0.517484
573.362	0.514395
573.702	0.511290
574.042	0.508187
574.381	0.505177
574.721	0.502212
575.061	0.499317
575.400	0.496585
575.740	0.493912
576.079	0.491309
576.419	0.488585
576.758	0.485741
577.097	0.482805
577.437	0.479741
577.776	0.476645
578.115	0.473547
578.454	0.470588
578.794	0.467898
579.133	0.465487
579.472	0.463228
579.811	0.461172
580.150	0.459126
580.489	0.457027
580.828	0.454772
581.167	0.452474
581.505	0.450157
581.844	0.447837
582.183	0.445485
582.522	0.443199
582.860	0.440987
583.199	0.438856
583.538	0.436825
583.876	0.434834
584.215	0.432850
584.553	0.430847
584.891	0.428823
585.230	0.426758
585.568	0.424664
585.906	0.422471
586.245	0.420299
586.583	0.418245
586.921	0.416319
587.259	0.414596
587.597	0.412923
587.935	0.411216
588.273	0.409373
588.611	0.407289
588.949	0.405104
589.287	0.402866
589.625	0.400601
589.963	0.398434
590.300	0.396331
590.638	0.394348
590.976	0.392358
591.313	0.390357
591.651	0.388348
591.989	0.386390
592.326	0.384564
592.664	0.382855
593.001	0.381187
593.338	0.379707
593.676	0.378315
594.013	0.376927
594.350	0.375549
594.687	0.374242
595.025	0.373016
595.362	0.371726
595.699	0.370408
596.036	0.369059
596.373	0.367688
596.710	0.366244
597.047	0.364775
597.384	0.363301
597.720	0.361809
598.057	0.360413
598.394	0.358972
598.731	0.357587
599.067	0.356223
599.404	0.354821
599.741	0.353440
600.077	0.352163
600.414	0.350925
600.750	0.349820
601.087	0.348780
601.423	0.347692
601.759	0.346617
602.096	0.345483
602.432	0.344399
602.768	0.343303
603.104	0.342180
603.440	0.341077
603.776	0.340047
604.112	0.338982
604.448	0.337988
604.784	0.337011
605.120	0.336020
605.456	0.335127
605.792	0.334202
606.128	0.333238
606.463	0.332285
606.799	0.331326
607.135	0.330373
607.470	0.329435
607.806	0.328477
608.142	0.327506
608.477	0.326631
608.812	0.325734
609.148	0.324881
609.483	0.324002
609.819	0.323126
610.154	0.322223
610.489	0.321324
610.824	0.320402
611.159	0.319557
611.494	0.318676
611.830	0.317896
612.165	0.317160
612.500	0.316407
612.834	0.315715
613.169	0.315046
613.504	0.314384
613.839	0.313677
614.174	0.312947
614.509	0.312187
614.843	0.311423
615.178	0.310704
615.512	0.309995
615.847	0.309312
616.182	0.308681
616.516	0.308056
616.850	0.307424
617.185	0.306814
617.519	0.306182
617.853	0.305582
618.188	0.304888
618.522	0.304123
618.856	0.303296
619.190	0.302467
619.524	0.301702
619.858	0.300899
620.192	0.300208
620.526	0.299490
620.860	0.298873
621.194	0.298276
621.528	0.297661
621.862	0.297065
622.195	0.296585
622.529	0.295952
622.863	0.295324
623.196	0.294660
623.530	0.294109
623.864	0.293548
624.197	0.293030
624.530	0.292462
624.864	0.291931
625.197	0.291416
625.531	0.290975
625.864	0.290477
626.197	0.289979
626.530	0.289489
626.863	0.288969
627.196	0.288348
627.529	0.287755
627.862	0.287117
628.195	0.286490
628.528	0.285828
628.861	0.285211
629.194	0.284537
629.527	0.283993
629.860	0.283435
630.192	0.282828
630.525	0.282148
630.858	0.281515
631.190	0.280874
631.523	0.280201
631.855	0.279419
632.188	0.278730
632.520	0.278011
632.852	0.277377
633.185	0.276735
633.517	0.276041
633.849	0.275435
634.182	0.274975
634.514	0.274477
634.846	0.273995
635.178	0.273571
635.510	0.273192
635.842	0.272757
636.174	0.272314
636.506	0.271825
636.837	0.271369
637.169	0.270905
637.501	0.270455
637.833	0.270107
638.164	0.269649
638.496	0.269231
638.828	0.268756
639.159	0.268311
639.491	0.267772
639.822	0.267179
640.154	0.266507
640.485	0.265819
640.816	0.265206
641.147	0.264437
641.479	0.263733
641.810	0.263005
642.141	0.262258
642.472	0.261553
642.803	0.260859
643.134	0.260154
643.465	0.259521
643.796	0.258921
644.127	0.258374
644.458	0.257916
644.789	0.257388
645.119	0.257019
645.450	0.256765
645.781	0.256709
646.111	0.256588
646.442	0.256535
646.773	0.256366
647.103	0.256213
647.433	0.256142
647.764	0.255802
648.094	0.255493
648.425	0.255223
648.755	0.255042
649.085	0.254726
649.415	0.254593
649.745	0.254507
650.075	0.254387
650.405	0.254153
650.735	0.252395
651.065	0.243144
651.395	0.234415
651.725	0.218905
652.055	0.179422
652.385	0.141078
652.715	0.109960
653.044	0.089097
653.374	0.074166
653.704	0.077134
654.033	0.091864
654.363	0.100643
654.692	0.105763
655.022	0.108787
655.351	0.110615
655.680	0.111687
656.010	0.112257
656.339	0.112494
656.668	0.112533
656.997	0.112469
657.326	0.112333
657.655	0.112114
657.984	0.110744
658.313	0.105094
658.642	0.097066
658.971	0.098611
659.300	0.109907
659.629	0.131692
659.958	0.162966
660.286	0.211830
660.615	0.246305
660.944	0.244316
661.272	0.241712
661.601	0.240080
661.929	0.239402
662.258	0.239559
662.586	0.239817
662.915	0.239865
663.243	0.239522
663.571	0.238983
663.899	0.238404
664.228	0.237955
664.556	0.237541
664.884	0.237144
665.212	0.236807
665.540	0.236437
665.868	0.236215
666.196	0.235839
666.524	0.235458
666.852	0.235266
667.179	0.234933
667.507	0.234544
667.835	0.234274
668.162	0.233978
668.490	0.233782
668.818	0.233733
669.145	0.233677
669.473	0.233575
669.800	0.233578
670.127	0.233510
670.455	0.233467
670.782	0.233414
671.109	0.233256
671.436	0.233119
671.764	0.232995
672.091	0.232820
672.418	0.232663
672.745	0.232508
673.072	0.232426
673.399	0.232244
673.726	0.232002
674.053	0.231776
674.379	0.231617
674.706	0.231328
675.033	0.230976
675.359	0.230630
675.686	0.230265
676.013	0.229827
676.339	0.229379
676.666	0.228887
676.992	0.228654
677.318	0.228353
677.645	0.228079
677.971	0.227809
678.297	0.227633
678.624	0.227470
678.950	0.227278
679.276	0.227048
679.602	0.226657
679.928	0.226237
680.254	0.225885
680.580	0.225537
680.906	0.225229
681.232	0.224929
681.558	0.224816
681.883	0.224807
682.209	0.224761
682.535	0.224594
682.860	0.224491
683.186	0.224417
683.511	0.224229
683.837	0.223841
684.162	0.223663
684.488	0.223454
684.813	0.223285
685.138	0.222965
685.464	0.222733
685.789	0.222480
686.114	0.222261
686.439	0.222127
686.764	0.221967
687.089	0.221896
687.414	0.221753
687.739	0.221623
688.064	0.221374
688.389	0.221161
688.714	0.220851
689.039	0.220430
689.363	0.220098
689.688	0.219700
690.013	0.219281
690.337	0.218982
690.662	0.218820
690.986	0.218604
691.311	0.218306
691.635	0.218025
691.959	0.217843
692.284	0.217507
692.608	0.217226
692.932	0.216975
693.256	0.216799
693.580	0.216719
693.904	0.216513
694.228	0.216409
694.552	0.216342
694.876	0.216296
695.200	0.216060
695.524	0.215737
695.848	0.215502
696.172	0.215207
696.495	0.214880
696.819	0.214648
697.143	0.214238
697.466	0.213830
697.790	0.213341
698.113	0.213030
698.437	0.212669
698.760	0.212302
699.083	0.212064
699.407	0.211893
699.730	0.211600
700.053	0.211392
700.376	0.211058
700.699	0.210715
701.022	0.210250
701.345	0.209591
701.668	0.208869
701.991	0.208207
702.314	0.207472
702.637	0.206706
702.960	0.205981
703.283	0.205394
703.605	0.204831
703.928	0.204605
704.251	0.204449
704.573	0.204347
704.896	0.204183
705.218	0.203976
705.540	0.203748
705.863	0.203454
706.185	0.203050
706.507	0.202667
706.830	0.202146
707.152	0.201612
707.474	0.201062
707.796	0.200541
708.118	0.200108
708.440	0.199817
708.762	0.199558
709.084	0.199367
709.406	0.199211
709.728	0.199030
710.049	0.198799
710.371	0.198548
710.693	0.198244
711.014	0.197797
711.336	0.197408
711.658	0.197085
711.979	0.196860
712.301	0.196610
712.622	0.196432
712.943	0.196256
713.265	0.196084
713.586	0.195924
713.907	0.195803
714.228	0.195759
714.549	0.195737
714.870	0.195672
715.191	0.195602
715.512	0.195601
715.833	0.195549
716.154	0.195335
716.475	0.195134
716.796	0.194930
717.117	0.194633
717.437	0.194188
717.758	0.193874
718.078	0.193496
718.399	0.193115
718.719	0.192717
719.040	0.192268
719.360	0.191840
719.681	0.191487
720.001	0.191217
720.321	0.190969
720.642	0.190724
720.962	0.190401
721.282	0.190219
721.602	0.190138
721.922	0.189990
722.242	0.189607
722.562	0.189398
722.882	0.189328
723.202	0.189283
723.521	0.189237
723.841	0.189161
724.161	0.189180
724.481	0.189063
724.800	0.188894
725.120	0.188634
725.439	0.188505
725.759	0.188511
726.078	0.188527
726.398	0.188428
726.717	0.188409
727.036	0.188436
727.355	0.188494
727.675	0.188671
727.994	0.188784
728.313	0.188943
728.632	0.188968
728.951	0.189079
729.270	0.189045
729.589	0.188896
729.908	0.188674
730.226	0.188467
730.545	0.188339
730.864	0.188119
731.182	0.187968
731.501	0.187922
731.820	0.187923
732.138	0.187886
732.457	0.187757
732.775	0.187635
733.093	0.187652
733.412	0.187579
733.730	0.187491
734.048	0.187380
734.367	0.187120
734.685	0.186801
735.003	0.186394
735.321	0.186150
735.639	0.185867
735.957	0.185648
736.275	0.185448
736.593	0.185376
736.910	0.185312
737.228	0.185261
737.546	0.185220
737.863	0.185124
738.181	0.184923
738.499	0.184678
738.816	0.184397
739.134	0.184173
739.451	0.183987
739.768	0.183681
740.086	0.183415
740.403	0.183086
740.720	0.182805
741.038	0.182565
741.355	0.182332
741.672	0.182079
741.989	0.181713
742.306	0.181280
742.623	0.180926
742.940	0.180550
743.257	0.179970
743.573	0.179431
743.890	0.178768
744.207	0.178188
744.523	0.177810
744.840	0.177411
745.157	0.177028
745.473	0.176671
745.790	0.176378
746.106	0.176032
746.422	0.175716
746.739	0.175385
747.055	0.175189
747.371	0.174961
747.687	0.174903
748.004	0.174860
748.320	0.174897
748.636	0.174889
748.952	0.174947
749.268	0.174922
749.584	0.175016
749.899	0.175127
750.215	0.175077
750.531	0.175137
750.847	0.175200
751.162	0.175201
751.478	0.175228
751.793	0.175232
752.109	0.175151
752.424	0.175072
752.740	0.174985
753.055	0.175016
753.370	0.175030
753.686	0.175201
754.001	0.175462
754.316	0.175724
754.631	0.175983
754.946	0.176100
755.261	0.176262
755.576	0.176377
755.891	0.176339
756.206	0.176258
756.521	0.176161
756.836	0.176173
757.150	0.176151
757.465	0.176132
757.780	0.176161
758.094	0.176220
758.409	0.176301
758.723	0.176448
759.038	0.176497
759.352	0.176605
759.667	0.176541
759.981	0.176479
760.295	0.176236
760.609	0.175987
760.923	0.175749
761.238	0.175417
761.552	0.175145
761.866	0.174870
762.180	0.174734
762.493	0.174721
762.807	0.174644
763.121	0.174597
763.435	0.174440
763.749	0.174246
764.062	0.174046
764.376	0.173795
764.689	0.173437
765.003	0.173164
765.316	0.172885
765.630	0.172779
765.943	0.172524
766.257	0.172436
766.570	0.172322
766.883	0.172182
767.196	0.171961
767.509	0.171598
767.822	0.171313
768.135	0.171060
768.448	0.170833
768.761	0.170454
769.074	0.170126
769.387	0.169816
769.700	0.169456
770.013	0.169203
770.325	0.169034
770.638	0.168904
770.950	0.168693
771.263	0.168566
771.575	0.168336
771.888	0.168037
772.200	0.167642
772.513	0.167311
772.825	0.166934
773.137	0.166589
773.449	0.166226
773.761	0.165779
774.074	0.165474
774.386	0.165135
774.698	0.164800
775.010	0.164393
775.321	0.164119
775.633	0.163767
775.945	0.163553
776.257	0.163571
776.568	0.163379
776.880	0.163150
777.192	0.162964
777.503	0.162852
777.815	0.162829
778.126	0.162843
778.438	0.162929
778.749	0.163095
779.060	0.163153
779.372	0.163219
779.683	0.163262
779.994	0.163309
780.305	0.163425
780.616	0.163491
780.927	0.163586
781.238	0.163556
781.549	0.163542
781.860	0.163603
782.171	0.163611
782.481	0.163579
782.792	0.163403
783.103	0.163399
783.413	0.163423
783.724	0.163269
784.034	0.163151
784.345	0.162874
784.655	0.162637
784.966	0.162473
785.276	0.162247
785.586	0.162065
785.896	0.161930
786.207	0.161849
786.517	0.161876
786.827	0.161827
787.137	0.161593
787.447	0.161419
787.757	0.161376
788.066	0.161337
788.376	0.161232
788.686	0.161128
788.996	0.161092
789.305	0.160995
789.615	0.160926
789.925	0.160822
790.234	0.160832
790.544	0.160797
790.853	0.160778
791.162	0.160889
791.472	0.160902
791.781	0.160978
792.090	0.161120
792.399	0.161065
792.708	0.160779
793.017	0.160493
793.326	0.160249
793.635	0.160180
793.944	0.160043
794.253	0.159845
794.562	0.159561
794.871	0.159230
795.179	0.159001
795.488	0.158887
795.797	0.158786
796.105	0.158672
796.414	0.158541
796.722	0.158374
797.031	0.158194
797.339	0.158006
797.647	0.157474
797.956	0.157026
798.264	0.156460
798.572	0.155829
798.880	0.155381
799.188	0.154990
799.496	0.154751
799.804	0.154560
800.112	0.154389
800.420	0.154175
800.728	0.153966
801.035	0.153777
801.343	0.153424
801.651	0.153007
801.958	0.152539
802.266	0.152194
802.573	0.152033
802.881	0.152015
803.188	0.151921
803.496	0.152034
803.803	0.152228
804.110	0.152445
804.417	0.152307
804.724	0.152169
805.032	0.152073
805.339	0.151886
805.646	0.152000
805.953	0.151752
806.259	0.151656
806.566	0.151476
806.873	0.151459
807.180	0.151303
807.486	0.151374
807.793	0.151520
808.100	0.151530
808.406	0.151400
808.713	0.151405
809.019	0.150996
809.326	0.150609
809.632	0.150087
809.938	0.149267
810.244	0.148526
810.551	0.147930
810.857	0.147499
811.163	0.147167
811.469	0.146808
811.775	0.146554
812.081	0.146164
812.387	0.146009
812.692	0.145583
812.998	0.145364
813.304	0.145057
813.610	0.145082
813.915	0.144807
814.221	0.144543
814.526	0.144514
814.832	0.144505
815.137	0.144182
815.443	0.144186
815.748	0.144140
816.053	0.144150
816.358	0.143956
816.664	0.143987
816.969	0.143880
817.274	0.143765
817.579	0.143657
817.884	0.143433
818.189	0.143380
818.493	0.143348
818.798	0.143492
819.103	0.143513
819.408	0.143232
819.712	0.142987
820.017	0.142580
820.321	0.142186
820.626	0.142015
820.930	0.141562
821.235	0.141253
821.539	0.141282
821.843	0.141045
822.148	0.140588
822.452	0.140526
822.756	0.140862
823.060	0.140720
823.364	0.140752
823.668	0.140803
823.972	0.140776
824.276	0.140759
824.580	0.140665
824.883	0.140695
825.187	0.140339
825.491	0.140155
825.795	0.140178
826.098	0.140050
826.402	0.139908
826.705	0.140084
827.008	0.139799
827.312	0.139761
827.615	0.139664
827.918	0.139369
828.222	0.139201
828.525	0.139135
828.828	0.139080
829.131	0.138468
829.434	0.138037
829.737	0.137110
830.040	0.136436
830.343	0.135831
830.645	0.135313
830.948	0.134614
831.251	0.133969
831.553	0.133481
831.856	0.133177
832.159	0.133056
832.461	0.133091
832.764	0.132816
833.066	0.132422
833.368	0.132213
833.671	0.131973
833.973	0.131658
834.275	0.131422
834.577	0.131269
834.879	0.131001
835.181	0.130526
835.483	0.130216
835.785	0.129576
836.087	0.129609
836.389	0.129202
836.690	0.128282
836.992	0.127720
837.294	0.126864
837.595	0.125486
837.897	0.124646
838.198	0.123919
838.500	0.123014
838.801	0.121800
839.103	0.121176
839.404	0.120420
839.705	0.120033
840.006	0.119617
840.307	0.119348
840.608	0.119085
840.910	0.118778
841.210	0.118652
841.511	0.118260
841.812	0.118291
842.113	0.118603
842.414	0.118023
842.715	0.117666
843.015	0.117143
843.316	0.116433
843.616	0.116029
843.917	0.116033
844.217	0.115799
844.518	0.114875
844.818	0.114047
845.118	0.113427
845.419	0.113515
845.719	0.112999
846.019	0.112262
846.319	0.112174
846.619	0.111744
846.919	0.111458
847.219	0.111401
847.519	0.110860
847.819	0.110698
848.118	0.110173
848.418	0.109580
848.718	0.108718
849.017	0.108830
849.317	0.109321
849.616	0.109908
849.916	0.110747
850.215	0.111339
850.515	0.111832
850.814	0.112470
851.113	0.112972
851.412	0.113731
851.712	0.113719
852.011	0.113768
852.310	0.114429
852.609	0.114638
852.908	0.114849
853.206	0.115223
853.505	0.115341
853.804	0.115586
854.103	0.115807
854.401	0.116112
854.700	0.116195
854.999	0.116439
855.297	0.116378
855.595	0.116511
855.894	0.116228
856.192	0.115779
856.491	0.115801
856.789	0.115601
857.087	0.115129
857.385	0.114556
857.683	0.113819
857.981	0.113476
858.279	0.113323
858.577	0.112113
858.875	0.111133
859.173	0.110462
859.471	0.109492
859.768	0.109091
860.066	0.108243
860.363	0.107454
860.661	0.106432
860.959	0.106505
861.256	0.106538
861.553	0.105939
861.851	0.105164
862.148	0.104693
862.445	0.104576
862.742	0.103410
863.039	0.102199
863.337	0.101929
863.634	0.101162
863.931	0.100479
864.227	0.100075
864.524	0.099639
864.821	0.099904
865.118	0.099832
865.415	0.099296
865.711	0.098564
866.008	0.097593
866.304	0.097517
866.601	0.097787
866.897	0.097819
867.194	0.096710
867.490	0.096092
867.786	0.096156
868.082	0.096164
868.379	0.096147
868.675	0.095661
868.971	0.095364
869.267	0.095966
869.563	0.096237
869.859	0.096632
870.154	0.096972
870.450	0.097096
870.746	0.096723
871.042	0.096610
871.337	0.096512
871.633	0.096487
871.928	0.096134
872.224	0.095314
872.519	0.094588
872.815	0.093794
873.110	0.093932
873.405	0.093725
873.700	0.092666
873.995	0.092700
874.291	0.092630
874.586	0.093181
874.881	0.093324
875.175	0.093612
875.470	0.093169
875.765	0.092921
876.060	0.092509
876.355	0.092571
876.649	0.092469
876.944	0.092967
877.238	0.093063
877.533	0.093455
877.827	0.094138
878.122	0.095370
878.416	0.096054
878.710	0.096595
879.005	0.096032
879.299	0.095858
879.593	0.095481
879.887	0.096086
880.181	0.095559
880.475	0.095481
880.769	0.094516
881.063	0.094354
881.356	0.094573
881.650	0.094720
881.944	0.094029
882.238	0.095891
882.531	0.084339
882.825	0.088449
883.118	0.081013
883.412	0.095024
883.705	0.079075
883.998	0.089525
884.291	0.100783
884.585	0.092229
884.878	0.077153
>>>>>>>>>> END of Data <<<<<<<<<<
>>>>>>>>>> Raw Data Start <<<<<<<<
190.664	-408
191.040	7
191.415	7
191.791	2
192.166	6
192.542	9
192.917	6
193.293	10
193.668	10
194.044	10
194.419	-10
194.794	10
195.170	11
195.545	11
195.920	12
196.296	12
196.671	12
197.046	13
197.421	13
197.796	13
198.171	14
198.546	14
198.922	14
199.297	14
199.672	14
200.047	15
200.422	15
200.796	15
201.171	15
201.546	15
201.921	15
202.296	15
202.671	15
203.045	15
203.420	15
203.795	15
204.170	15
204.544	15
204.919	15
205.294	15
205.668	15
206.043	15
206.417	15
206.792	15
207.166	15
207.541	14
207.915	14
208.289	14
208.664	14
209.038	14
209.412	14
209.787	14
210.161	14
210.535	14
210.909	14
211.284	14
211.658	14
212.032	14
212.406	14
212.780	14
213.154	14
213.528	14
213.902	14
214.276	14
214.650	14
215.024	14
215.398	14
215.772	14
216.145	14
216.519	13
216.893	14
217.267	14
217.640	14
218.014	14
218.388	14
218.761	14
219.135	14
219.508	15
219.882	15
220.256	15
220.629	15
221.003	14
221.376	14
221.749	15
222.123	15
222.496	14
222.869	14
223.243	14
223.616	15
223.989	15
224.362	15
224.736	16
225.109	15
225.482	15
225.855	15
226.228	15
226.601	15
226.974	15
227.347	15
227.720	15
228.093	15
228.466	15
228.839	15
229.212	15
229.585	15
229.957	15
230.330	16
230.703	16
231.076	16
231.448	16
231.821	16
232.194	16
232.566	15
232.939	15
233.311	15
233.684	15
234.056	16
234.429	15
234.801	15
235.174	15
235.546	15
235.918	16
236.291	16
236.663	16
237.035	16
237.408	16
237.780	16
238.152	16
238.524	16
238.896	16
239.268	16
239.641	16
240.013	16
240.385	16
240.757	16
241.129	16
241.500	16
241.872	16
242.244	16
242.616	16
242.988	16
243.360	16
243.731	15
244.103	15
244.475	15
244.847	16
245.218	16
245.590	15
245.961	15
246.333	16
246.705	16
247.076	16
247.448	16
247.819	16
248.190	16
248.562	16
248.933	16
249.305	16
249.676	16
250.047	16
250.418	16
250.790	16
251.161	16
251.532	16
251.903	16
252.274	16
252.645	16
253.016	15
253.387	16
253.758	16
254.129	16
254.500	16
254.871	16
255.242	16
255.613	16
255.984	16
256.355	15
256.725	16
257.096	16
257.467	16
257.838	15
258.208	16
258.579	16
258.949	16
259.320	16
259.690	16
260.061	17
260.431	17
260.802	17
261.172	16
261.543	16
261.913	16
262.283	17
262.654	17
263.024	17
263.394	17
263.764	17
264.135	17
264.505	17
264.875	17
265.245	17
265.615	17
265.985	17
266.355	17
266.725	17
267.095	17
267.465	17
267.835	17
268.205	17
268.575	17
268.944	17
269.314	16
269.684	16
270.054	16
270.423	16
270.793	16
271.163	16
271.532	16
271.902	16
272.271	15
272.641	16
273.010	16
273.380	16
273.749	16
274.119	16
274.488	16
274.857	16
275.227	16
275.596	16
275.965	16
276.335	17
276.704	17
277.073	17
277.442	17
277.811	18
278.180	17
278.549	17
278.918	18
279.287	18
279.656	18
280.025	18
280.394	18
280.763	18
281.132	18
281.501	18
281.869	17
282.238	17
282.607	17
282.976	17
283.344	17
283.713	17
284.081	17
284.450	17
284.819	17
285.187	17
285.556	16
285.924	17
286.292	17
286.661	17
287.029	16
287.398	17
287.766	17
288.134	17
288.502	17
288.871	17
289.239	17
289.607	17
289.975	17
290.343	18
290.711	18
291.079	18
291.447	18
291.815	18
292.183	18
292.551	18
292.919	18
293.287	19
293.655	18
294.022	19
294.390	18
294.758	18
295.126	18
295.493	18
295.861	18
296.229	18
296.596	18
296.964	18
297.331	18
297.699	18
298.066	18
298.434	18
298.801	18
299.168	18
299.536	17
299.903	17
300.270	17
300.638	17
301.005	17
301.372	17
301.739	17
302.106	17
302.473	18
302.840	18
303.207	18
303.574	18
303.941	18
304.308	18
304.675	18
305.042	18
305.409	18
305.776	18
306.143	18
306.509	18
306.876	18
307.243	18
307.610	18
307.976	18
308.343	18
308.709	19
309.076	19
309.442	18
309.809	18
310.175	18
310.542	19
310.908	19
311.275	19
311.641	19
312.007	19
312.373	19
312.740	20
313.106	20
313.472	20
313.838	20
314.204	20
314.570	21
314.936	21
315.302	22
315.668	22
316.034	22
316.400	22
316.766	22
317.132	22
317.498	22
317.864	22
318.230	23
318.595	23
318.961	23
319.327	23
319.692	24
320.058	25
320.424	25
320.789	26
321.155	27
321.520	27
321.886	27
322.251	28
322.616	28
322.982	29
323.347	30
323.712	30
324.078	31
324.443	32
324.808	33
325.173	34
325.539	35
325.904	36
326.269	37
326.634	38
326.999	39
327.364	40
327.729	40
328.094	41
328.459	42
328.823	43
329.188	43
329.553	45
329.918	46
330.283	46
330.647	47
331.012	48
331.377	49
331.741	50
332.106	51
332.470	52
332.835	53
333.199	54
333.564	55
333.928	56
334.293	57
334.657	59
335.021	59
335.386	61
335.750	62
336.114	64
336.478	65
336.843	66
337.207	68
337.571	69
337.935	70
338.299	72
338.663	74
339.027	75
339.391	77
339.755	78
340.119	80
340.483	81
340.846	83
341.210	84
341.574	85
341.938	87
342.301	88
342.665	90
343.029	91
343.392	92
343.756	93
344.119	95
344.483	96
344.846	97
345.210	98
345.573	100
345.937	101
346.300	101
346.663	103
347.027	104
347.390	105
347.753	106
348.116	107
348.479	108
348.843	110
349.206	111
349.569	112
349.932	113
350.295	114
350.658	115
351.021	116
351.383	116
351.746	117
352.109	118
352.472	119
352.835	120
353.197	121
353.560	121
353.923	123
354.285	123
354.648	125
355.011	125
355.373	126
355.736	127
356.098	127
356.461	128
356.823	129
357.185	129
357.548	130
357.910	131
358.272	132
358.635	133
358.997	134
359.359	135
359.721	136
360.083	136
360.445	137
360.807	137
361.169	138
361.531	138
361.893	139
362.255	139
362.617	140
362.979	140
363.341	141
363.703	142
364.064	142
364.426	143
364.788	144
365.149	144
365.511	145
365.873	146
366.234	146
366.596	146
366.957	147
367.319	147
367.680	148
368.042	148
368.403	148
368.764	148
369.126	149
369.487	149
369.848	149
370.209	149
370.570	149
370.931	149
371.293	150
371.654	150
372.015	150
372.376	149
372.737	150
373.098	150
373.458	150
373.819	150
374.180	150
374.541	150
374.902	151
375.263	151
375.623	151
375.984	151
376.345	152
376.705	152
377.066	152
377.426	153
377.787	153
378.147	153
378.508	154
378.868	154
379.228	154
379.589	155
379.949	155
380.309	155
380.670	155
381.030	156
381.390	156
381.750	156
382.110	157
382.470	156
382.830	156
383.190	156
383.550	157
383.910	157
384.270	157
384.630	158
384.990	158
385.350	158
385.709	159
386.069	159
386.429	159
386.788	159
387.148	159
387.508	158
387.867	159
388.227	159
388.586	159
388.946	160
389.305	160
389.665	161
390.024	161
390.383	162
390.743	163
391.102	163
391.461	164
391.820	164
392.179	164
392.539	164
392.898	164
393.257	164
393.616	164
393.975	164
394.334	165
394.693	166
395.051	167
395.410	168
395.769	169
396.128	169
396.487	169
396.845	170
397.204	170
397.563	170
397.921	169
398.280	169
398.638	170
398.997	169
399.355	170
399.714	170
400.072	170
400.431	170
400.789	171
401.147	171
401.506	172
401.864	172
402.222	172
402.580	172
402.938	171
403.297	171
403.655	171
404.013	170
404.371	170
404.729	170
405.087	170
405.444	170
405.802	170
406.160	170
406.518	170
406.876	170
407.233	170
407.591	170
407.949	169
408.306	169
408.664	169
409.022	168
409.379	168
409.737	168
410.094	168
410.451	168
410.809	169
411.166	169
411.523	169
411.881	169
412.238	169
412.595	170
412.952	170
413.310	169
413.667	169
414.024	169
414.381	169
414.738	169
415.095	169
415.452	169
415.809	170
416.165	169
416.522	170
416.879	170
417.236	170
417.593	171
417.949	172
418.306	173
418.663	174
419.019	176
419.376	178
419.732	179
420.089	180
420.445	181
420.802	182
421.158	183
421.514	184
421.871	185
422.227	186
422.583	186
422.939	187
423.295	187
423.652	188
424.008	188
424.364	189
424.720	188
425.076	188
425.432	188
425.788	188
426.143	188
426.499	188
426.855	188
427.211	189
427.567	190
427.922	190
428.278	190
428.634	190
428.989	190
429.345	190
429.700	191
430.056	191
430.411	191
430.767	192
431.122	192
431.478	193
431.833	193
432.188	194
432.543	194
432.899	194
433.254	194
433.609	194
433.964	194
434.319	194
434.674	193
435.029	193
435.384	193
435.739	194
436.094	194
436.449	195
436.804	196
437.158	197
437.513	199
437.868	201
438.223	203
438.577	205
438.932	206
439.287	209
439.641	211
439.996	214
440.350	216
440.704	218
441.059	220
441.413	222
441.768	225
442.122	226
442.476	229
442.830	231
443.185	233
443.539	235
443.893	237
444.247	239
444.601	240
444.955	241
445.309	242
445.663	242
446.017	243
446.371	243
446.724	244
447.078	244
447.432	243
447.786	243
448.139	243
448.493	243
448.847	242
449.200	242
449.554	242
449.907	242
450.261	241
450.614	241
450.968	241
451.321	241
451.674	241
452.027	241
452.381	241
452.734	242
453.087	242
453.440	243
453.793	244
454.146	245
454.499	246
454.852	249
455.205	251
455.558	253
455.911	255
456.264	257
456.617	260
456.970	262
457.322	264
457.675	265
458.028	267
458.380	269
458.733	270
459.086	272
459.438	274
459.791	276
460.143	278
460.496	281
460.848	284
461.200	288
461.553	292
461.905	296
462.257	299
462.609	302
462.961	304
463.314	307
463.666	309
464.018	311
464.370	313
464.722	316
465.074	319
465.426	321
465.777	323
466.129	325
466.481	327
466.833	328
467.184	328
467.536	329
467.888	329
468.239	329
468.591	328
468.943	329
469.294	330
469.646	331
469.997	332
470.348	335
470.700	338
471.051	341
471.402	346
471.754	351
472.105	356
472.456	361
472.807	367
473.158	374
473.509	380
473.860	388
474.211	396
474.562	405
474.913	413
475.264	423
475.615	432
475.966	441
476.316	450
476.667	459
477.018	467
477.368	477
477.719	486
478.070	495
478.420	504
478.771	512
479.121	521
479.472	530
479.822	538
480.172	548
480.523	559
480.873	574
481.223	599
481.573	635
481.924	680
482.274	731
482.624	785
482.974	839
483.324	886
483.674	921
484.024	946
484.374	963
484.724	974
485.073	982
485.423	989
485.773	996
486.123	1002
486.472	1008
486.822	1014
487.172	1018
487.521	1023
487.871	1025
488.220	1023
488.570	1011
488.919	988
489.268	955
489.618	916
489.967	875
490.316	833
490.666	797
491.015	771
491.364	756
491.713	750
492.062	749
492.411	750
492.760	754
493.109	757
493.458	762
493.807	765
494.156	768
494.505	771
494.853	775
495.202	779
495.551	784
495.900	789
496.248	794
496.597	800
496.945	805
497.294	810
497.642	816
497.991	822
498.339	830
498.688	838
499.036	845
499.384	852
499.732	858
500.081	863
500.429	869
500.777	874
501.125	878
501.473	883
501.821	888
502.169	893
502.517	897
502.865	899
503.213	902
503.561	904
503.908	905
504.256	907
504.604	908
504.952	908
505.299	908
505.647	907
505.994	906
506.342	904
506.689	903
507.037	901
507.384	901
507.732	901
508.079	901
508.426	901
508.774	901
509.121	901
509.468	900
509.815	900
510.162	899
510.509	899
510.856	898
511.203	897
511.550	896
511.897	896
512.244	895
512.591	894
512.938	893
513.284	893
513.631	892
513.978	890
514.324	889
514.671	887
515.018	885
515.364	883
515.711	882
516.057	880
516.403	879
516.750	878
517.096	876
517.443	873
517.789	871
518.135	868
518.481	867
518.827	864
519.173	862
519.519	860
519.865	858
520.211	857
520.557	856
520.903	855
521.249	854
521.595	853
521.941	853
522.287	852
522.632	852
522.978	851
523.324	851
523.669	851
524.015	852
524.360	854
524.706	857
525.051	861
525.397	866
525.742	871
526.087	876
526.433	881
526.778	886
527.123	889
527.468	892
527.813	895
528.158	898
528.504	901
528.849	906
529.193	912
529.538	920
529.883	929
530.228	940
530.573	952
530.918	964
531.263	976
531.607	987
531.952	997
532.296	1006
532.641	1013
532.986	1019
533.330	1024
533.675	1030
534.019	1037
534.363	1047
534.708	1058
535.052	1071
535.396	1084
535.741	1097
536.085	1109
536.429	1120
536.773	1129
537.117	1136
537.461	1143
537.805	1149
538.149	1156
538.493	1163
538.837	1170
539.181	1179
539.524	1190
539.868	1203
540.212	1218
540.556	1233
540.899	1249
541.243	1263
541.586	1275
541.930	1286
542.273	1293
542.617	1299
542.960	1306
543.304	1315
543.647	1325
543.990	1339
544.333	1354
544.677	1369
545.020	1384
545.363	1397
545.706	1407
546.049	1416
546.392	1420
546.735	1423
547.078	1426
547.421	1428
547.764	1431
548.106	1435
548.449	1442
548.792	1450
549.135	1461
549.477	1475
549.820	1489
550.162	1501
550.505	1511
550.847	1520
551.190	1526
551.532	1532
551.875	1538
552.217	1544
552.559	1552
552.901	1563
553.244	1575
553.586	1589
553.928	1603
554.270	1615
554.612	1626
554.954	1636
555.296	1644
555.638	1652
555.980	1662
556.322	1673
556.663	1687
557.005	1706
557.347	1728
557.689	1752
558.030	1776
558.372	1798
558.713	1819
559.055	1839
559.396	1858
559.738	1880
560.079	1903
560.421	1928
560.762	1956
561.103	1987
561.444	2022
561.786	2057
562.127	2095
562.468	2136
562.809	2180
563.150	2229
563.491	2283
563.832	2341
564.173	2408
564.514	2484
564.855	2575
565.195	2684
565.536	2816
565.877	2968
566.218	3140
566.558	3335
566.899	3548
567.239	3779
567.580	4022
567.920	4271
568.261	4523
568.601	4783
568.941	5052
569.282	5329
569.622	5618
569.962	5920
570.302	6242
570.643	6576
570.983	6913
571.323	7240
571.663	7558
572.003	7861
572.343	8148
572.683	8420
573.022	8698
573.362	8991
573.702	9296
574.042	9602
574.381	9898
574.721	10181
575.061	10455
575.400	10706
575.740	10931
576.079	11134
576.419	11336
576.758	11565
577.097	11833
577.437	12126
577.776	12438
578.115	12765
578.454	13097
578.794	13403
579.133	13644
579.472	13819
579.811	13928
580.150	13979
580.489	13986
580.828	13974
581.167	13965
581.505	13967
581.844	13975
582.183	13984
582.522	14001
582.860	14026
583.199	14051
583.538	14054
583.876	14014
584.215	13915
584.553	13751
584.891	13527
585.230	13245
585.568	12929
585.906	12607
586.245	12317
586.583	12068
586.921	11864
587.259	11679
587.597	11491
587.935	11296
588.273	11095
588.611	10911
588.949	10751
589.287	10619
589.625	10519
589.963	10444
590.300	10386
590.638	10335
590.976	10275
591.313	10202
591.651	10133
591.989	10074
592.326	10027
592.664	9989
593.001	9960
593.338	9946
593.676	9945
594.013	9962
594.350	10011
594.687	10086
595.025	10167
595.362	10243
595.699	10301
596.036	10342
596.373	10361
596.710	10355
597.047	10330
597.384	10297
597.720	10259
598.057	10228
598.394	10210
598.731	10205
599.067	10216
599.404	10246
599.741	10300
600.077	10369
600.414	10447
600.750	10526
601.087	10588
601.423	10624
601.759	10635
602.096	10628
602.432	10607
602.768	10570
603.104	10515
603.440	10444
603.776	10366
604.112	10282
604.448	10195
604.784	10103
605.120	10004
605.456	9907
605.792	9806
606.128	9700
606.463	9591
606.799	9480
607.135	9379
607.470	9279
607.806	9180
608.142	9084
608.477	8990
608.812	8900
609.148	8809
609.483	8713
609.819	8615
610.154	8521
610.489	8435
610.824	8361
611.159	8299
611.494	8236
611.830	8181
612.165	8127
612.500	8066
612.834	7994
613.169	7910
613.504	7817
613.839	7713
614.174	7595
614.509	7476
614.843	7358
615.178	7245
615.512	7134
615.847	7024
616.182	6915
616.516	6804
616.850	6687
617.185	6565
617.519	6441
617.853	6307
618.188	6167
618.522	6041
618.856	5934
619.190	5841
619.524	5759
619.858	5696
620.192	5646
620.526	5602
620.860	5558
621.194	5516
621.528	5474
621.862	5433
622.195	5380
622.529	5326
622.863	5269
623.196	5213
623.530	5155
623.864	5097
624.197	5038
624.530	4981
624.864	4929
625.197	4876
625.531	4815
625.864	4741
626.197	4661
626.530	4575
626.863	4477
627.196	4372
627.529	4265
627.862	4160
628.195	4056
628.528	3952
628.861	3853
629.194	3765
629.527	3680
629.860	3596
630.192	3513
630.525	3436
630.858	3364
631.190	3296
631.523	3230
631.855	3169
632.188	3116
632.520	3066
632.852	3019
633.185	2971
633.517	2925
633.849	2883
634.182	2844
634.514	2807
634.846	2775
635.178	2746
635.510	2720
635.842	2697
636.174	2674
636.506	2652
636.837	2630
637.169	2608
637.501	2585
637.833	2559
638.164	2530
638.496	2497
638.828	2460
639.159	2419
639.491	2374
639.822	2327
640.154	2280
640.485	2234
640.816	2188
641.147	2142
641.479	2098
641.810	2056
642.141	2015
642.472	1975
642.803	1934
643.134	1897
643.465	1864
643.796	1838
644.127	1819
644.458	1810
644.789	1810
645.119	1821
645.450	1839
645.781	1858
646.111	1878
646.442	1895
646.773	1909
647.103	1920
647.433	1928
647.764	1939
648.094	1952
648.425	1969
648.755	1988
649.085	2011
649.415	2035
649.745	2059
650.075	2085
650.405	2113
650.735	2175
651.065	2616
651.395	3984
651.725	6271
652.055	9207
652.385	12607
652.715	16281
653.044	19956
653.374	23635
653.704	26441
654.033	28433
654.363	29810
654.692	30728
655.022	31328
655.351	31725
655.680	31972
656.010	32107
656.339	32169
656.668	32186
656.997	32180
657.326	32157
657.655	32090
657.984	31637
658.313	30249
658.642	27933
658.971	24963
659.300	21524
659.629	17811
659.958	14099
660.286	10387
660.615	7553
660.944	5538
661.272	4142
661.601	3207
661.929	2586
662.258	2166
662.586	1890
662.915	1722
663.243	1626
663.571	1571
663.899	1539
664.228	1518
664.556	1505
664.884	1496
665.212	1490
665.540	1485
665.868	1483
666.196	1483
666.524	1483
666.852	1484
667.179	1491
667.507	1503
667.835	1521
668.162	1543
668.490	1571
668.818	1604
669.145	1638
669.473	1672
669.800	1704
670.127	1732
670.455	1755
670.782	1775
671.109	1793
671.436	1808
671.764	1820
672.091	1831
672.418	1840
672.745	1847
673.072	1854
673.399	1863
673.726	1873
674.053	1880
674.379	1883
674.706	1883
675.033	1883
675.359	1881
675.686	1878
676.013	1877
676.339	1879
676.666	1886
676.992	1901
677.318	1921
677.645	1944
677.971	1965
678.297	1984
678.624	2003
678.950	2021
679.276	2037
679.602	2054
679.928	2072
680.254	2093
680.580	2120
680.906	2154
681.232	2197
681.558	2240
681.883	2283
682.209	2324
682.535	2361
682.860	2396
683.186	2424
683.511	2447
683.837	2463
684.162	2475
684.488	2484
684.813	2494
685.138	2504
685.464	2511
685.789	2519
686.114	2525
686.439	2534
686.764	2544
687.089	2550
687.414	2552
687.739	2544
688.064	2530
688.389	2511
688.714	2489
689.039	2465
689.363	2440
689.688	2413
690.013	2386
690.337	2361
690.662	2341
690.986	2324
691.311	2306
691.635	2288
691.959	2271
692.284	2260
692.608	2257
692.932	2262
693.256	2270
693.580	2280
693.904	2293
694.228	2308
694.552	2321
694.876	2328
695.200	2327
695.524	2318
695.848	2304
696.172	2285
696.495	2266
696.819	2246
697.143	2226
697.466	2205
697.790	2187
698.113	2175
698.437	2169
698.760	2168
699.083	2168
699.407	2162
699.730	2152
700.053	2135
700.376	2111
700.699	2077
701.022	2035
701.345	1989
701.668	1947
701.991	1911
702.314	1886
702.637	1875
702.960	1880
703.283	1900
703.605	1935
703.928	1982
704.251	2035
704.573	2088
704.896	2136
705.218	2175
705.540	2206
705.863	2231
706.185	2252
706.507	2269
706.830	2286
707.152	2303
707.474	2322
707.796	2344
708.118	2366
708.440	2387
708.762	2406
709.084	2421
709.406	2429
709.728	2431
710.049	2426
710.371	2417
710.693	2401
711.014	2383
711.336	2367
711.658	2351
711.979	2337
712.301	2325
712.622	2311
712.943	2295
713.265	2276
713.586	2256
713.907	2237
714.228	2220
714.549	2206
714.870	2197
715.191	2193
715.512	2192
715.833	2189
716.154	2184
716.475	2174
716.796	2161
717.117	2140
717.437	2117
717.758	2090
718.078	2063
718.399	2036
718.719	2012
719.040	1992
719.360	1977
719.681	1965
720.001	1958
720.321	1955
720.642	1953
720.962	1955
721.282	1960
721.602	1965
721.922	1972
722.242	1982
722.562	1995
722.882	2010
723.202	2024
723.521	2037
723.841	2051
724.161	2064
724.481	2078
724.800	2093
725.120	2112
725.439	2135
725.759	2159
726.078	2188
726.398	2223
726.717	2266
727.036	2314
727.355	2365
727.675	2415
727.994	2462
728.313	2507
728.632	2547
728.951	2579
729.270	2607
729.589	2633
729.908	2666
730.226	2702
730.545	2743
730.864	2786
731.182	2833
731.501	2881
731.820	2925
732.138	2964
732.457	2999
732.775	3031
733.093	3056
733.412	3070
733.730	3074
734.048	3067
734.367	3053
734.685	3035
735.003	3014
735.321	2995
735.639	2979
735.957	2967
736.275	2956
736.593	2939
736.910	2914
737.228	2879
737.546	2834
737.863	2782
738.181	2725
738.499	2664
738.816	2605
739.134	2546
739.451	2487
739.768	2428
740.086	2371
740.403	2317
740.720	2268
741.038	2222
741.355	2177
741.672	2132
741.989	2087
742.306	2040
742.623	1992
742.940	1944
743.257	1900
743.573	1862
743.890	1832
744.207	1809
744.523	1792
744.840	1782
745.157	1775
745.473	1775
745.790	1781
746.106	1795
746.422	1816
746.739	1842
747.055	1873
747.371	1909
747.687	1946
748.004	1982
748.320	2012
748.636	2040
748.952	2067
749.268	2095
749.584	2122
749.899	2146
750.215	2171
750.531	2199
750.847	2230
751.162	2261
751.478	2292
751.793	2323
752.109	2357
752.424	2394
752.740	2431
753.055	2473
753.370	2524
753.686	2582
754.001	2645
754.316	2711
754.631	2780
754.946	2855
755.261	2933
755.576	3009
755.891	3083
756.206	3156
756.521	3233
756.836	3310
757.150	3386
757.465	3452
757.780	3508
758.094	3555
758.409	3592
758.723	3615
759.038	3625
759.352	3624
759.667	3614
759.981	3595
760.295	3578
760.609	3564
760.923	3555
761.238	3551
761.552	3548
761.866	3543
762.180	3536
762.493	3517
762.807	3480
763.121	3424
763.435	3353
763.749	3276
764.062	3203
764.376	3142
764.689	3101
765.003	3079
765.316	3076
765.630	3086
765.943	3105
766.257	3126
766.570	3143
766.883	3148
767.196	3140
767.509	3120
767.822	3091
768.135	3052
768.448	3010
768.761	2966
769.074	2928
769.387	2899
769.700	2882
770.013	2871
770.325	2862
770.638	2849
770.950	2826
771.263	2788
771.575	2736
771.888	2668
772.200	2590
772.513	2505
772.825	2416
773.137	2324
773.449	2235
773.761	2148
774.074	2068
774.386	1996
774.698	1936
775.010	1887
775.321	1851
775.633	1828
775.945	1815
776.257	1806
776.568	1804
776.880	1811
777.192	1824
777.503	1844
777.815	1869
778.126	1900
778.438	1939
778.749	1980
779.060	2021
779.372	2059
779.683	2096
779.994	2129
780.305	2155
780.616	2172
780.927	2184
781.238	2187
781.549	2183
781.860	2169
782.171	2149
782.481	2127
782.792	2106
783.103	2084
783.413	2059
783.724	2034
784.034	2010
784.345	1988
784.655	1968
784.966	1947
785.276	1925
785.586	1903
785.896	1882
786.207	1859
786.517	1835
786.827	1811
787.137	1790
787.447	1768
787.757	1748
788.066	1728
788.376	1710
788.686	1691
788.996	1672
789.305	1653
789.615	1638
789.925	1629
790.234	1627
790.544	1631
790.853	1640
791.162	1648
791.472	1656
791.781	1659
792.090	1655
792.399	1645
792.708	1631
793.017	1614
793.326	1597
793.635	1581
793.944	1567
794.253	1554
794.562	1545
794.871	1541
795.179	1537
795.488	1532
795.797	1524
796.105	1510
796.414	1487
796.722	1457
797.031	1418
797.339	1371
797.647	1319
797.956	1264
798.264	1213
798.572	1171
798.880	1138
799.188	1114
799.496	1096
799.804	1083
800.112	1073
800.420	1065
800.728	1056
801.035	1046
801.343	1033
801.651	1024
801.958	1021
802.266	1026
802.573	1035
802.881	1046
803.188	1060
803.496	1075
803.803	1090
804.110	1104
804.417	1117
804.724	1129
805.032	1139
805.339	1148
805.646	1153
805.953	1157
806.259	1158
806.566	1156
806.873	1152
807.180	1146
807.486	1140
807.793	1132
808.100	1121
808.406	1103
808.713	1077
809.019	1048
809.326	1019
809.632	991
809.938	965
810.244	941
810.551	921
810.857	904
811.163	889
811.469	874
811.775	857
812.081	840
812.387	824
812.692	812
812.998	803
813.304	796
813.610	789
813.915	785
814.221	781
814.526	777
814.832	774
815.137	771
815.443	766
815.748	759
816.053	748
816.358	738
816.664	729
816.969	720
817.274	713
817.579	707
817.884	703
818.189	702
818.493	702
818.798	700
819.103	695
819.408	688
819.712	681
820.017	672
820.321	663
820.626	654
820.930	646
821.235	640
821.539	637
821.843	638
822.148	640
822.452	641
822.756	640
823.060	638
823.364	634
823.668	628
823.972	622
824.276	615
824.580	610
824.883	607
825.187	607
825.491	607
825.795	607
826.098	607
826.402	607
826.705	604
827.008	600
827.312	594
827.615	584
827.918	572
828.222	558
828.525	544
828.828	531
829.131	518
829.434	505
829.737	493
830.040	483
830.343	475
830.645	468
830.948	462
831.251	455
831.553	449
831.856	444
832.159	439
832.461	433
832.764	427
833.066	421
833.368	417
833.671	413
833.973	410
834.275	407
834.577	405
834.879	402
835.181	398
835.483	393
835.785	388
836.087	381
836.389	373
836.690	364
836.992	354
837.294	343
837.595	333
837.897	321
838.198	310
838.500	299
838.801	290
839.103	281
839.404	274
839.705	268
840.006	263
840.307	259
840.608	256
840.910	254
841.210	253
841.511	251
841.812	248
842.113	245
842.414	242
842.715	238
843.015	233
843.316	228
843.616	223
843.917	219
844.217	215
844.518	212
844.818	210
845.118	208
845.419	207
845.719	206
846.019	205
846.319	204
846.619	203
846.919	203
847.219	202
847.519	201
847.819	200
848.118	200
848.418	202
848.718	209
849.017	219
849.317	233
849.616	250
849.916	269
850.215	291
850.515	315
850.814	338
851.113	360
851.412	378
851.712	396
852.011	412
852.310	427
852.609	440
852.908	452
853.206	462
853.505	472
853.804	480
854.103	488
854.401	493
854.700	495
854.999	493
855.297	487
855.595	477
855.894	463
856.192	447
856.491	427
856.789	406
857.087	384
857.385	364
857.683	346
857.981	330
858.279	314
858.577	300
858.875	287
859.173	277
859.471	269
859.768	262
860.066	256
860.363	251
860.661	247
860.959	244
861.256	241
861.553	237
861.851	233
862.148	228
862.445	223
862.742	220
863.039	216
863.337	213
863.634	211
863.931	209
864.227	208
864.524	208
864.821	208
865.118	207
865.415	205
865.711	203
866.008	199
866.304	195
866.601	191
866.897	188
867.194	185
867.490	184
867.786	182
868.082	182
868.379	183
868.675	184
868.971	184
869.267	184
869.563	184
869.859	183
870.154	182
870.450	181
870.746	180
871.042	179
871.337	179
871.633	180
871.928	181
872.224	182
872.519	184
872.815	185
873.110	186
873.405	186
873.700	185
873.995	185
874.291	185
874.586	186
874.881	187
875.175	188
875.470	191
875.765	195
876.060	199
876.355	203
876.649	207
876.944	210
877.238	214
877.533	217
877.827	219
878.122	221
878.416	221
878.710	221
879.005	221
879.299	220
879.593	219
879.887	218
880.181	217
880.475	216
880.769	214
881.063	213
881.356	210
881.650	207
881.944	204
882.238	167
882.531	165
882.825	160
883.118	165
883.412	163
883.705	166
883.998	168
884.291	168
884.585	172
884.878	186
>>>>>>>>>> END of Data <<<<<<<<<<