Date	2021年06月15日火曜日 04時30分00秒
Spectrometers	USB2+H05879
ダーク	使用
リファレンス	使用
積分時間[msec]	10
平均回数	280
ｽﾑｰｼﾞﾝｸﾞ	10
Electrical Dark	USE
ピクセル数	2048
計測モード	吸光度
保存開始波長[nm]	190.664
保存終了波長[nm]	884.878
保存ﾋﾟｯﾁ波長[nm]	全波長

>>>>>>>>>> Data Start <<<<<<<<<<<<
190.664	0.000000
191.040	0.000000
191.415	0.000000
191.791	-2.525409
192.166	-0.464489
192.542	-0.894213
192.917	0.000000
193.293	-0.319168
193.668	-0.342780
194.044	-0.857127
194.419	0.000000
194.794	-1.389550
195.170	-1.316013
195.545	-1.228520
195.920	-1.099514
196.296	-0.986804
196.671	-0.827961
197.046	-0.672232
197.421	-0.626981
197.796	-0.619026
198.171	-0.594964
198.546	-0.545429
198.922	-0.498710
199.297	-0.471088
199.672	-0.443238
200.047	-0.424405
200.422	-0.398424
200.796	-0.385435
201.171	-0.362123
201.546	-0.360667
201.921	-0.351494
202.296	-0.334575
202.671	-0.311363
203.045	-0.283587
203.420	-0.275630
203.795	-0.262100
204.170	-0.249560
204.544	-0.241810
204.919	-0.241476
205.294	-0.232517
205.668	-0.220570
206.043	-0.201190
206.417	-0.204766
206.792	-0.201029
207.166	-0.197120
207.541	-0.197590
207.915	-0.203914
208.289	-0.187499
208.664	-0.181628
209.038	-0.185118
209.412	-0.168110
209.787	-0.145404
210.161	-0.139308
210.535	-0.142790
210.909	-0.136040
211.284	-0.133160
211.658	-0.133508
212.032	-0.141202
212.406	-0.151601
212.780	-0.155286
213.154	-0.162622
213.528	-0.165366
213.902	-0.160426
214.276	-0.151347
214.650	-0.154437
215.024	-0.155629
215.398	-0.149118
215.772	-0.134353
216.145	-0.140954
216.519	-0.132887
216.893	-0.130677
217.267	-0.142742
217.640	-0.154995
218.014	-0.140847
218.388	-0.128398
218.761	-0.131956
219.135	-0.118043
219.508	-0.123721
219.882	-0.125490
220.256	-0.118575
220.629	-0.109810
221.003	-0.110591
221.376	-0.107311
221.749	-0.113945
222.123	-0.114589
222.496	-0.114654
222.869	-0.111481
223.243	-0.110284
223.616	-0.110729
223.989	-0.111140
224.362	-0.107509
224.736	-0.103100
225.109	-0.099583
225.482	-0.093067
225.855	-0.095987
226.228	-0.103092
226.601	-0.108113
226.974	-0.108472
227.347	-0.092717
227.720	-0.089874
228.093	-0.091094
228.466	-0.100192
228.839	-0.092118
229.212	-0.097758
229.585	-0.104563
229.957	-0.110615
230.330	-0.106850
230.703	-0.102145
231.076	-0.106678
231.448	-0.106610
231.821	-0.110209
232.194	-0.112117
232.566	-0.116246
232.939	-0.115912
233.311	-0.116834
233.684	-0.117543
234.056	-0.114288
234.429	-0.101925
234.801	-0.106338
235.174	-0.109938
235.546	-0.110582
235.918	-0.112091
236.291	-0.104699
236.663	-0.104149
237.035	-0.097996
237.408	-0.089739
237.780	-0.078641
238.152	-0.079714
238.524	-0.087853
238.896	-0.084141
239.268	-0.084672
239.641	-0.079453
240.013	-0.073111
240.385	-0.067429
240.757	-0.068446
241.129	-0.071640
241.500	-0.071986
241.872	-0.071917
242.244	-0.068201
242.616	-0.067545
242.988	-0.070376
243.360	-0.064828
243.731	-0.058128
244.103	-0.063785
244.475	-0.069106
244.847	-0.068780
245.218	-0.064911
245.590	-0.060582
245.961	-0.057205
246.333	-0.046023
246.705	-0.045636
247.076	-0.041480
247.448	-0.035868
247.819	-0.038140
248.190	-0.031576
248.562	-0.026867
248.933	-0.021806
249.305	-0.019223
249.676	-0.017363
250.047	-0.029335
250.418	-0.032566
250.790	-0.029609
251.161	-0.030536
251.532	-0.031981
251.903	-0.029064
252.274	-0.018414
252.645	-0.014406
253.016	-0.022689
253.387	-0.027967
253.758	-0.027957
254.129	-0.032318
254.500	-0.030424
254.871	-0.031701
255.242	-0.039842
255.613	-0.041516
255.984	-0.052151
256.355	-0.054014
256.725	-0.047716
257.096	-0.046626
257.467	-0.045638
257.838	-0.040162
258.208	-0.040818
258.579	-0.039509
258.949	-0.043323
259.320	-0.042276
259.690	-0.037676
260.061	-0.035000
260.431	-0.029062
260.802	-0.024492
261.172	-0.019163
261.543	-0.014489
261.913	-0.014411
262.283	-0.014295
262.654	-0.015558
263.024	-0.015590
263.394	-0.015530
263.764	-0.009064
264.135	-0.008825
264.505	-0.021263
264.875	-0.018075
265.245	-0.021600
265.615	-0.027186
265.985	-0.021345
266.355	-0.016730
266.725	-0.015867
267.095	-0.015019
267.465	-0.017401
267.835	-0.021364
268.205	-0.029722
268.575	-0.021059
268.944	-0.020333
269.314	-0.021227
269.684	-0.019325
270.054	-0.030931
270.423	-0.031955
270.793	-0.031893
271.163	-0.030010
271.532	-0.026351
271.902	-0.021640
272.271	-0.010314
272.641	-0.012712
273.010	-0.012658
273.380	-0.008913
273.749	-0.007594
274.119	-0.008240
274.488	0.002641
274.857	0.006352
275.227	0.010054
275.596	0.010255
275.965	0.015642
276.335	0.012381
276.704	0.005596
277.073	0.004910
277.442	0.005961
277.811	0.018941
278.180	0.023132
278.549	0.031513
278.918	0.031983
279.287	0.026732
279.656	0.027061
280.025	0.021081
280.394	0.015894
280.763	0.027794
281.132	0.032987
281.501	0.036317
281.869	0.032453
282.238	0.028626
282.607	0.023305
282.976	0.021408
283.344	0.024556
283.713	0.027885
284.081	0.023893
284.450	0.029533
284.819	0.030679
285.187	0.037522
285.556	0.035530
285.924	0.031797
286.292	0.025387
286.661	0.023432
287.029	0.031653
287.398	0.032221
287.766	0.035363
288.134	0.039856
288.502	0.034085
288.871	0.037209
289.239	0.037484
289.607	0.038778
289.975	0.039071
290.343	0.042044
290.711	0.043115
291.079	0.036980
291.447	0.036032
291.815	0.040981
292.183	0.043642
292.551	0.044643
292.919	0.038925
293.287	0.036098
293.655	0.041815
294.022	0.042754
294.390	0.045742
294.758	0.045478
295.126	0.045664
295.493	0.050398
295.861	0.054865
296.229	0.055315
296.596	0.053530
296.964	0.056282
297.331	0.058421
297.699	0.059920
298.066	0.064659
298.434	0.072158
298.801	0.077184
299.168	0.073103
299.536	0.074177
299.903	0.072097
300.270	0.074084
300.638	0.078738
301.005	0.090579
301.372	0.089345
301.739	0.098006
302.106	0.099656
302.473	0.104033
302.840	0.112901
303.207	0.131444
303.574	0.141344
303.941	0.155482
304.308	0.167883
304.675	0.178539
305.042	0.197523
305.409	0.216405
305.776	0.232631
306.143	0.248891
306.509	0.269935
306.876	0.296161
307.243	0.322123
307.610	0.346037
307.976	0.372736
308.343	0.402662
308.709	0.427039
309.076	0.459418
309.442	0.484173
309.809	0.511423
310.175	0.540835
310.542	0.562527
310.908	0.575604
311.275	0.598093
311.641	0.621507
312.007	0.645422
312.373	0.670201
312.740	0.691304
313.106	0.712776
313.472	0.740796
313.838	0.762242
314.204	0.782083
314.570	0.792736
314.936	0.805957
315.302	0.821539
315.668	0.837242
316.034	0.854610
316.400	0.874712
316.766	0.888505
317.132	0.902285
317.498	0.915405
317.864	0.922435
318.230	0.936766
318.595	0.950356
318.961	0.958307
319.327	0.967554
319.692	0.973461
320.058	0.978671
320.424	0.987042
320.789	0.994642
321.155	1.000010
321.520	1.007258
321.886	1.014914
322.251	1.024077
322.616	1.032847
322.982	1.037671
323.347	1.039185
323.712	1.041876
324.078	1.042864
324.443	1.045203
324.808	1.048095
325.173	1.052316
325.539	1.056856
325.904	1.059776
326.269	1.062128
326.634	1.065025
326.999	1.067162
327.364	1.069988
327.729	1.073179
328.094	1.073828
328.459	1.074328
328.823	1.075034
329.188	1.075853
329.553	1.075535
329.918	1.076181
330.283	1.075789
330.647	1.077143
331.012	1.078260
331.377	1.078705
331.741	1.078083
332.106	1.079594
332.470	1.080803
332.835	1.080854
333.199	1.081166
333.564	1.081060
333.928	1.081547
334.293	1.081957
334.657	1.081080
335.021	1.081388
335.386	1.080798
335.750	1.080338
336.114	1.080452
336.478	1.080150
336.843	1.079686
337.207	1.079603
337.571	1.079756
337.935	1.079924
338.299	1.079413
338.663	1.079194
339.027	1.079318
339.391	1.080798
339.755	1.080667
340.119	1.080311
340.483	1.080289
340.846	1.080766
341.210	1.080461
341.574	1.080175
341.938	1.080546
342.301	1.081491
342.665	1.081782
343.029	1.081953
343.392	1.082840
343.756	1.083031
344.119	1.083555
344.483	1.084297
344.846	1.085526
345.210	1.086388
345.573	1.086729
345.937	1.087461
346.300	1.088471
346.663	1.088862
347.027	1.089191
347.390	1.089734
347.753	1.090381
348.116	1.091049
348.479	1.091719
348.843	1.092777
349.206	1.093665
349.569	1.094022
349.932	1.094387
350.295	1.094651
350.658	1.095399
351.021	1.096280
351.383	1.097115
351.746	1.097505
352.109	1.098175
352.472	1.098322
352.835	1.098933
353.197	1.099700
353.560	1.100327
353.923	1.100784
354.285	1.100995
354.648	1.101317
355.011	1.101646
355.373	1.102415
355.736	1.102895
356.098	1.103157
356.461	1.103994
356.823	1.104364
357.185	1.105470
357.548	1.106284
357.910	1.106615
358.272	1.107026
358.635	1.107017
358.997	1.107240
359.359	1.108207
359.721	1.108550
360.083	1.109145
360.445	1.109441
360.807	1.110049
361.169	1.110358
361.531	1.111021
361.893	1.112209
362.255	1.113112
362.617	1.113515
362.979	1.113913
363.341	1.114165
363.703	1.114505
364.064	1.114762
364.426	1.115383
364.788	1.115310
365.149	1.115602
365.511	1.116520
365.873	1.117314
366.234	1.118211
366.596	1.119140
366.957	1.119770
367.319	1.120018
367.680	1.120424
368.042	1.120673
368.403	1.121318
368.764	1.122364
369.126	1.122716
369.487	1.122938
369.848	1.123075
370.209	1.123984
370.570	1.124366
370.931	1.125257
371.293	1.125934
371.654	1.126476
372.015	1.127072
372.376	1.127890
372.737	1.128627
373.098	1.128861
373.458	1.129566
373.819	1.129951
374.180	1.130397
374.541	1.130852
374.902	1.131772
375.263	1.132288
375.623	1.132845
375.984	1.133495
376.345	1.133501
376.705	1.133901
377.066	1.134604
377.426	1.134959
377.787	1.135279
378.147	1.135587
378.508	1.135670
378.868	1.135787
379.228	1.135765
379.589	1.135919
379.949	1.136144
380.309	1.136381
380.670	1.136845
381.030	1.136587
381.390	1.136788
381.750	1.136878
382.110	1.136913
382.470	1.137041
382.830	1.137321
383.190	1.137747
383.550	1.137441
383.910	1.137889
384.270	1.138277
384.630	1.138564
384.990	1.139122
385.350	1.139147
385.709	1.139549
386.069	1.139805
386.429	1.139985
386.788	1.140139
387.148	1.140402
387.508	1.140352
387.867	1.140230
388.227	1.139950
388.586	1.140382
388.946	1.140558
389.305	1.140629
389.665	1.140946
390.024	1.141222
390.383	1.141272
390.743	1.141139
391.102	1.140916
391.461	1.140763
391.820	1.140480
392.179	1.139809
392.539	1.139426
392.898	1.139636
393.257	1.138907
393.616	1.138854
393.975	1.138667
394.334	1.138708
394.693	1.138186
395.051	1.138046
395.410	1.137780
395.769	1.137411
396.128	1.136899
396.487	1.136387
396.845	1.135829
397.204	1.134809
397.563	1.133762
397.921	1.132977
398.280	1.131978
398.638	1.131009
398.997	1.130078
399.355	1.129403
399.714	1.128854
400.072	1.127922
400.431	1.126614
400.789	1.125938
401.147	1.125001
401.506	1.123745
401.864	1.122772
402.222	1.121729
402.580	1.120157
402.938	1.118928
403.297	1.117925
403.655	1.116600
404.013	1.115415
404.371	1.114327
404.729	1.113015
405.087	1.111660
405.444	1.110271
405.802	1.109080
406.160	1.108230
406.518	1.106839
406.876	1.105258
407.233	1.103898
407.591	1.102490
407.949	1.101203
408.306	1.099866
408.664	1.098282
409.022	1.097015
409.379	1.095123
409.737	1.093326
410.094	1.091794
410.451	1.090268
410.809	1.088701
411.166	1.087121
411.523	1.085644
411.881	1.084098
412.238	1.082518
412.595	1.080986
412.952	1.079499
413.310	1.077821
413.667	1.076197
414.024	1.074847
414.381	1.073539
414.738	1.071614
415.095	1.069774
415.452	1.067812
415.809	1.065950
416.165	1.064147
416.522	1.062304
416.879	1.060497
417.236	1.058724
417.593	1.057015
417.949	1.055003
418.306	1.053142
418.663	1.051695
419.019	1.049739
419.376	1.047848
419.732	1.046313
420.089	1.044746
420.445	1.043125
420.802	1.041554
421.158	1.039517
421.514	1.037597
421.871	1.035537
422.227	1.033784
422.583	1.032101
422.939	1.030216
423.295	1.028465
423.652	1.026579
424.008	1.024574
424.364	1.022571
424.720	1.020611
425.076	1.018523
425.432	1.016500
425.788	1.014177
426.143	1.011568
426.499	1.009240
426.855	1.006951
427.211	1.004537
427.567	1.002270
427.922	0.999927
428.278	0.997465
428.634	0.995511
428.989	0.993397
429.345	0.991215
429.700	0.989020
430.056	0.986973
430.411	0.984965
430.767	0.982789
431.122	0.980623
431.478	0.978461
431.833	0.975970
432.188	0.973481
432.543	0.971149
432.899	0.968518
433.254	0.966127
433.609	0.963556
433.964	0.961185
434.319	0.958432
434.674	0.955554
435.029	0.952914
435.384	0.950330
435.739	0.947821
436.094	0.945381
436.449	0.942800
436.804	0.940191
437.158	0.937566
437.513	0.934886
437.868	0.932149
438.223	0.929418
438.577	0.926553
438.932	0.924046
439.287	0.921708
439.641	0.919446
439.996	0.916830
440.350	0.914468
440.704	0.912049
441.059	0.909721
441.413	0.906850
441.768	0.904310
442.122	0.902020
442.476	0.899409
442.830	0.896809
443.185	0.894341
443.539	0.891845
443.893	0.889319
444.247	0.886852
444.601	0.884383
444.955	0.881786
445.309	0.879157
445.663	0.876477
446.017	0.873943
446.371	0.871157
446.724	0.868291
447.078	0.865438
447.432	0.862711
447.786	0.859946
448.139	0.857089
448.493	0.854133
448.847	0.851406
449.200	0.848632
449.554	0.845873
449.907	0.843225
450.261	0.840372
450.614	0.837610
450.968	0.834715
451.321	0.831996
451.674	0.829255
452.027	0.826410
452.381	0.823582
452.734	0.820893
453.087	0.818155
453.440	0.815159
453.793	0.812306
454.146	0.809653
454.499	0.806878
454.852	0.804178
455.205	0.801456
455.558	0.798886
455.911	0.796376
456.264	0.793743
456.617	0.791251
456.970	0.788814
457.322	0.786421
457.675	0.784191
458.028	0.781845
458.380	0.779689
458.733	0.777323
459.086	0.775047
459.438	0.772919
459.791	0.770595
460.143	0.768235
460.496	0.766043
460.848	0.763824
461.200	0.761444
461.553	0.759038
461.905	0.756888
462.257	0.754585
462.609	0.752409
462.961	0.750199
463.314	0.748106
463.666	0.746107
464.018	0.744015
464.370	0.741888
464.722	0.739824
465.074	0.737716
465.426	0.735806
465.777	0.733943
466.129	0.732214
466.481	0.730480
466.833	0.728706
467.184	0.726900
467.536	0.725012
467.888	0.722960
468.239	0.720957
468.591	0.718883
468.943	0.716647
469.294	0.714344
469.646	0.712095
469.997	0.709855
470.348	0.707671
470.700	0.705525
471.051	0.703353
471.402	0.701231
471.754	0.699272
472.105	0.697274
472.456	0.695528
472.807	0.693796
473.158	0.692022
473.509	0.690255
473.860	0.688480
474.211	0.686809
474.562	0.685276
474.913	0.683741
475.264	0.682125
475.615	0.680542
475.966	0.679049
476.316	0.677531
476.667	0.675910
477.018	0.674343
477.368	0.672726
477.719	0.671196
478.070	0.669618
478.420	0.668148
478.771	0.666559
479.121	0.665045
479.472	0.663480
479.822	0.661856
480.172	0.660227
480.523	0.658524
480.873	0.656648
481.223	0.654410
481.573	0.652202
481.924	0.650051
482.274	0.647977
482.624	0.646103
482.974	0.644591
483.324	0.643292
483.674	0.642224
484.024	0.641117
484.374	0.640106
484.724	0.639136
485.073	0.638105
485.423	0.637100
485.773	0.636025
486.123	0.635050
486.472	0.634001
486.822	0.632968
487.172	0.631997
487.521	0.630958
487.871	0.629962
488.220	0.628975
488.570	0.628001
488.919	0.626769
489.268	0.625279
489.618	0.623626
489.967	0.621799
490.316	0.619582
490.666	0.617165
491.015	0.614849
491.364	0.612866
491.713	0.610889
492.062	0.609054
492.411	0.607389
492.760	0.605768
493.109	0.604189
493.458	0.602618
493.807	0.601082
494.156	0.599484
494.505	0.597832
494.853	0.596258
495.202	0.594589
495.551	0.592928
495.900	0.591359
496.248	0.589706
496.597	0.588127
496.945	0.586575
497.294	0.585025
497.642	0.583490
497.991	0.581932
498.339	0.580376
498.688	0.578906
499.036	0.577504
499.384	0.576074
499.732	0.574574
500.081	0.573138
500.429	0.571683
500.777	0.570227
501.125	0.568764
501.473	0.567411
501.821	0.566026
502.169	0.564715
502.517	0.563422
502.865	0.562135
503.213	0.560734
503.561	0.559428
503.908	0.558131
504.256	0.556804
504.604	0.555447
504.952	0.554107
505.299	0.552814
505.647	0.551459
505.994	0.549999
506.342	0.548639
506.689	0.547265
507.037	0.545904
507.384	0.544520
507.732	0.543213
508.079	0.541898
508.426	0.540609
508.774	0.539329
509.121	0.538095
509.468	0.536828
509.815	0.535624
510.162	0.534398
510.509	0.533211
510.856	0.532062
511.203	0.530904
511.550	0.529752
511.897	0.528609
512.244	0.527475
512.591	0.526235
512.938	0.525094
513.284	0.523979
513.631	0.522768
513.978	0.521585
514.324	0.520417
514.671	0.519204
515.018	0.518022
515.364	0.516860
515.711	0.515773
516.057	0.514653
516.403	0.513498
516.750	0.512369
517.096	0.511195
517.443	0.510023
517.789	0.508950
518.135	0.507842
518.481	0.506700
518.827	0.505551
519.173	0.504428
519.519	0.503265
519.865	0.502190
520.211	0.501135
520.557	0.500000
520.903	0.498892
521.249	0.497781
521.595	0.496666
521.941	0.495582
522.287	0.494406
522.632	0.493160
522.978	0.491969
523.324	0.490698
523.669	0.489484
524.015	0.488214
524.360	0.486941
524.706	0.485796
525.051	0.484560
525.397	0.483270
525.742	0.482042
526.087	0.480887
526.433	0.479803
526.778	0.478745
527.123	0.477615
527.468	0.476355
527.813	0.475241
528.158	0.474061
528.504	0.472803
528.849	0.471458
529.193	0.470167
529.538	0.468931
529.883	0.467652
530.228	0.466261
530.573	0.465036
530.918	0.463778
531.263	0.462538
531.607	0.461364
531.952	0.460150
532.296	0.458927
532.641	0.457745
532.986	0.456480
533.330	0.455264
533.675	0.453998
534.019	0.452645
534.363	0.451330
534.708	0.450047
535.052	0.448765
535.396	0.447600
535.741	0.446519
536.085	0.445391
536.429	0.444192
536.773	0.442885
537.117	0.441585
537.461	0.440178
537.805	0.438664
538.149	0.437215
538.493	0.435688
538.837	0.434210
539.181	0.432617
539.524	0.431028
539.868	0.429458
540.212	0.427936
540.556	0.426318
540.899	0.424748
541.243	0.423271
541.586	0.421785
541.930	0.420286
542.273	0.418695
542.617	0.417023
542.960	0.415279
543.304	0.413521
543.647	0.411717
543.990	0.410019
544.333	0.408221
544.677	0.406550
545.020	0.404929
545.363	0.403222
545.706	0.401586
546.049	0.399893
546.392	0.398274
546.735	0.396672
547.078	0.394978
547.421	0.393218
547.764	0.391465
548.106	0.389616
548.449	0.387639
548.792	0.385749
549.135	0.383851
549.477	0.381973
549.820	0.380204
550.162	0.378402
550.505	0.376579
550.847	0.374799
551.190	0.372825
551.532	0.370898
551.875	0.368847
552.217	0.366726
552.559	0.364678
552.901	0.362647
553.244	0.360630
553.586	0.358635
553.928	0.356679
554.270	0.354869
554.612	0.353073
554.954	0.351277
555.296	0.349349
555.638	0.347482
555.980	0.345436
556.322	0.343294
556.663	0.341096
557.005	0.338787
557.347	0.336564
557.689	0.334421
558.030	0.332247
558.372	0.330140
558.713	0.328058
559.055	0.325971
559.396	0.323885
559.738	0.321715
560.079	0.319499
560.421	0.317352
560.762	0.315267
561.103	0.313188
561.444	0.311133
561.786	0.309134
562.127	0.307122
562.468	0.305120
562.809	0.303021
563.150	0.300839
563.491	0.298618
563.832	0.296361
564.173	0.293993
564.514	0.291577
564.855	0.289085
565.195	0.286529
565.536	0.283964
565.877	0.281439
566.218	0.278965
566.558	0.276544
566.899	0.274277
567.239	0.272152
567.580	0.270221
567.920	0.268465
568.261	0.266855
568.601	0.265316
568.941	0.263854
569.282	0.262479
569.622	0.261097
569.962	0.259746
570.302	0.258426
570.643	0.257174
570.983	0.256017
571.323	0.254919
571.663	0.253850
572.003	0.252787
572.343	0.251698
572.683	0.250530
573.022	0.249277
573.362	0.247983
573.702	0.246712
574.042	0.245473
574.381	0.244276
574.721	0.243088
575.061	0.241934
575.400	0.240892
575.740	0.239828
576.079	0.238774
576.419	0.237627
576.758	0.236416
577.097	0.235158
577.437	0.233845
577.776	0.232484
578.115	0.231133
578.454	0.229855
578.794	0.228757
579.133	0.227777
579.472	0.226896
579.811	0.226084
580.150	0.225283
580.489	0.224459
580.828	0.223548
581.167	0.222595
581.505	0.221647
581.844	0.220718
582.183	0.219771
582.522	0.218800
582.860	0.217860
583.199	0.216965
583.538	0.216120
583.876	0.215354
584.215	0.214600
584.553	0.213849
584.891	0.213121
585.230	0.212362
585.568	0.211570
585.906	0.210655
586.245	0.209723
586.583	0.208814
586.921	0.207989
587.259	0.207275
587.597	0.206613
587.935	0.205915
588.273	0.205126
588.611	0.204202
588.949	0.203201
589.287	0.202193
589.625	0.201165
589.963	0.200240
590.300	0.199351
590.638	0.198570
590.976	0.197756
591.313	0.196924
591.651	0.196094
591.989	0.195258
592.326	0.194466
592.664	0.193741
593.001	0.193053
593.338	0.192443
593.676	0.191906
594.013	0.191339
594.350	0.190799
594.687	0.190273
595.025	0.189840
595.362	0.189380
595.699	0.188891
596.036	0.188383
596.373	0.187875
596.710	0.187348
597.047	0.186787
597.384	0.186219
597.720	0.185621
598.057	0.185054
598.394	0.184454
598.731	0.183871
599.067	0.183308
599.404	0.182676
599.741	0.182101
600.077	0.181552
600.414	0.181028
600.750	0.180564
601.087	0.180162
601.423	0.179722
601.759	0.179269
602.096	0.178762
602.432	0.178326
602.768	0.177888
603.104	0.177448
603.440	0.176992
603.776	0.176601
604.112	0.176178
604.448	0.175791
604.784	0.175427
605.120	0.175065
605.456	0.174753
605.792	0.174423
606.128	0.174080
606.463	0.173780
606.799	0.173426
607.135	0.173053
607.470	0.172739
607.806	0.172356
608.142	0.171976
608.477	0.171620
608.812	0.171252
609.148	0.170912
609.483	0.170543
609.819	0.170203
610.154	0.169811
610.489	0.169407
610.824	0.168971
611.159	0.168636
611.494	0.168277
611.830	0.167945
612.165	0.167692
612.500	0.167425
612.834	0.167208
613.169	0.166956
613.504	0.166693
613.839	0.166379
614.174	0.166081
614.509	0.165718
614.843	0.165394
615.178	0.165108
615.512	0.164860
615.847	0.164582
616.182	0.164375
616.516	0.164163
616.850	0.163968
617.185	0.163770
617.519	0.163588
617.853	0.163406
618.188	0.163080
618.522	0.162759
618.856	0.162419
619.190	0.162019
619.524	0.161626
619.858	0.161250
620.192	0.160945
620.526	0.160675
620.860	0.160452
621.194	0.160203
621.528	0.159941
621.862	0.159730
622.195	0.159525
622.529	0.159193
622.863	0.158971
623.196	0.158702
623.530	0.158458
623.864	0.158173
624.197	0.157967
624.530	0.157683
624.864	0.157420
625.197	0.157230
625.531	0.157026
625.864	0.156786
626.197	0.156502
626.530	0.156321
626.863	0.156044
627.196	0.155748
627.529	0.155470
627.862	0.155160
628.195	0.154854
628.528	0.154574
628.861	0.154205
629.194	0.153856
629.527	0.153562
629.860	0.153254
630.192	0.152903
630.525	0.152553
630.858	0.152201
631.190	0.151844
631.523	0.151556
631.855	0.151141
632.188	0.150769
632.520	0.150397
632.852	0.150066
633.185	0.149808
633.517	0.149502
633.849	0.149292
634.182	0.149063
634.514	0.148882
634.846	0.148738
635.178	0.148602
635.510	0.148448
635.842	0.148322
636.174	0.148106
636.506	0.147951
636.837	0.147755
637.169	0.147555
637.501	0.147332
637.833	0.147193
638.164	0.146983
638.496	0.146737
638.828	0.146480
639.159	0.146231
639.491	0.145906
639.822	0.145607
640.154	0.145213
640.485	0.144764
640.816	0.144309
641.147	0.143851
641.479	0.143279
641.810	0.142804
642.141	0.142420
642.472	0.142025
642.803	0.141612
643.134	0.141276
643.465	0.140919
643.796	0.140626
644.127	0.140311
644.458	0.140118
644.789	0.139848
645.119	0.139728
645.450	0.139734
645.781	0.139893
646.111	0.140056
646.442	0.140294
646.773	0.140391
647.103	0.140482
647.433	0.140534
647.764	0.140415
648.094	0.140367
648.425	0.140464
648.755	0.140477
649.085	0.140406
649.415	0.140471
649.745	0.140544
650.075	0.140570
650.405	0.140521
650.735	0.139029
651.065	0.130668
651.395	0.123332
651.725	0.110885
652.055	0.075853
652.385	0.056237
652.715	0.043681
653.044	0.034956
653.374	0.028564
653.704	0.023699
654.033	0.032994
654.363	0.039232
654.692	0.042863
655.022	0.044996
655.351	0.046290
655.680	0.047062
656.010	0.047473
656.339	0.047645
656.668	0.047676
656.997	0.047632
657.326	0.047537
657.655	0.047426
657.984	0.046737
658.313	0.043267
658.642	0.038838
658.971	0.044898
659.300	0.052648
659.629	0.062940
659.958	0.077242
660.286	0.098483
660.615	0.133397
660.944	0.136044
661.272	0.134532
661.601	0.133597
661.929	0.133381
662.258	0.133590
662.586	0.133766
662.915	0.133881
663.243	0.133745
663.571	0.133597
663.899	0.133441
664.228	0.133349
664.556	0.133146
664.884	0.133000
665.212	0.132898
665.540	0.132860
665.868	0.132745
666.196	0.132797
666.524	0.132755
666.852	0.132709
667.179	0.132660
667.507	0.132683
667.835	0.132732
668.162	0.132625
668.490	0.132669
668.818	0.132730
669.145	0.132803
669.473	0.132949
669.800	0.133107
670.127	0.133208
670.455	0.133184
670.782	0.133220
671.109	0.133281
671.436	0.133368
671.764	0.133457
672.091	0.133458
672.418	0.133467
672.745	0.133527
673.072	0.133561
673.399	0.133528
673.726	0.133473
674.053	0.133508
674.379	0.133421
674.706	0.133303
675.033	0.133208
675.359	0.133186
675.686	0.133175
676.013	0.133182
676.339	0.133029
676.666	0.132877
676.992	0.132804
677.318	0.132850
677.645	0.132812
677.971	0.132778
678.297	0.132749
678.624	0.132687
678.950	0.132655
679.276	0.132612
679.602	0.132467
679.928	0.132342
680.254	0.132138
680.580	0.131986
680.906	0.131835
681.232	0.131827
681.558	0.131914
681.883	0.132067
682.209	0.132146
682.535	0.132191
682.860	0.132196
683.186	0.132254
683.511	0.132195
683.837	0.132095
684.162	0.131995
684.488	0.131950
684.813	0.131910
685.138	0.131796
685.464	0.131726
685.789	0.131647
686.114	0.131520
686.439	0.131562
686.764	0.131547
687.089	0.131622
687.414	0.131660
687.739	0.131717
688.064	0.131717
688.389	0.131662
688.714	0.131511
689.039	0.131359
689.363	0.131248
689.688	0.131150
690.013	0.131003
690.337	0.130935
690.662	0.130975
690.986	0.131001
691.311	0.130948
691.635	0.130876
691.959	0.130871
692.284	0.130730
692.608	0.130649
692.932	0.130647
693.256	0.130611
693.580	0.130653
693.904	0.130648
694.228	0.130755
694.552	0.130821
694.876	0.130877
695.200	0.130854
695.524	0.130846
695.848	0.130756
696.172	0.130668
696.495	0.130506
696.819	0.130370
697.143	0.130175
697.466	0.129911
697.790	0.129646
698.113	0.129469
698.437	0.129224
698.760	0.129045
699.083	0.129005
699.407	0.128938
699.730	0.128825
700.053	0.128695
700.376	0.128534
700.699	0.128344
701.022	0.128057
701.345	0.127622
701.668	0.127087
701.991	0.126566
702.314	0.125997
702.637	0.125469
702.960	0.124881
703.283	0.124477
703.605	0.124091
703.928	0.123909
704.251	0.123907
704.573	0.123847
704.896	0.123888
705.218	0.123877
705.540	0.123701
705.863	0.123478
706.185	0.123166
706.507	0.122778
706.830	0.122396
707.152	0.121881
707.474	0.121456
707.796	0.121064
708.118	0.120753
708.440	0.120491
708.762	0.120325
709.084	0.120191
709.406	0.120071
709.728	0.119983
710.049	0.119811
710.371	0.119634
710.693	0.119456
711.014	0.119099
711.336	0.118848
711.658	0.118526
711.979	0.118315
712.301	0.118210
712.622	0.118087
712.943	0.117976
713.265	0.117930
713.586	0.117792
713.907	0.117814
714.228	0.117842
714.549	0.117790
714.870	0.117845
715.191	0.117878
715.512	0.117916
715.833	0.117990
716.154	0.117925
716.475	0.117804
716.796	0.117611
717.117	0.117415
717.437	0.117111
717.758	0.116804
718.078	0.116443
718.399	0.116056
718.719	0.115671
719.040	0.115314
719.360	0.115028
719.681	0.114770
720.001	0.114550
720.321	0.114429
720.642	0.114208
720.962	0.113989
721.282	0.113891
721.602	0.113721
721.922	0.113586
722.242	0.113338
722.562	0.113100
722.882	0.113042
723.202	0.112982
723.521	0.112963
723.841	0.112941
724.161	0.112877
724.481	0.112907
724.800	0.112871
725.120	0.112895
725.439	0.112861
725.759	0.112797
726.078	0.112820
726.398	0.112708
726.717	0.112744
727.036	0.112761
727.355	0.112832
727.675	0.112917
727.994	0.113000
728.313	0.113151
728.632	0.113225
728.951	0.113280
729.270	0.113227
729.589	0.113110
729.908	0.112926
730.226	0.112752
730.545	0.112591
730.864	0.112374
731.182	0.112169
731.501	0.112057
731.820	0.111945
732.138	0.111886
732.457	0.111689
732.775	0.111496
733.093	0.111475
733.412	0.111348
733.730	0.111241
734.048	0.111060
734.367	0.110781
734.685	0.110528
735.003	0.110079
735.321	0.109758
735.639	0.109435
735.957	0.109195
736.275	0.109004
736.593	0.108958
736.910	0.108841
737.228	0.108734
737.546	0.108664
737.863	0.108571
738.181	0.108317
738.499	0.108042
738.816	0.107770
739.134	0.107580
739.451	0.107396
739.768	0.107134
740.086	0.106860
740.403	0.106570
740.720	0.106328
741.038	0.106112
741.355	0.105781
741.672	0.105558
741.989	0.105235
742.306	0.104902
742.623	0.104432
742.940	0.103926
743.257	0.103178
743.573	0.102642
743.890	0.102042
744.207	0.101439
744.523	0.100893
744.840	0.100555
745.157	0.100158
745.473	0.099773
745.790	0.099459
746.106	0.099040
746.422	0.098762
746.739	0.098485
747.055	0.098234
747.371	0.097963
747.687	0.097875
748.004	0.097804
748.320	0.097792
748.636	0.097744
748.952	0.097646
749.268	0.097810
749.584	0.097829
749.899	0.097898
750.215	0.097932
750.531	0.097956
750.847	0.098042
751.162	0.098050
751.478	0.098019
751.793	0.097914
752.109	0.097795
752.424	0.097699
752.740	0.097634
753.055	0.097603
753.370	0.097578
753.686	0.097644
754.001	0.097814
754.316	0.098005
754.631	0.098209
754.946	0.098277
755.261	0.098370
755.576	0.098518
755.891	0.098426
756.206	0.098354
756.521	0.098260
756.836	0.098171
757.150	0.098141
757.465	0.098096
757.780	0.098053
758.094	0.098037
758.409	0.098087
758.723	0.098115
759.038	0.098104
759.352	0.098093
759.667	0.097960
759.981	0.097826
760.295	0.097591
760.609	0.097352
760.923	0.097068
761.238	0.096715
761.552	0.096467
761.866	0.096202
762.180	0.096009
762.493	0.095927
762.807	0.095841
763.121	0.095755
763.435	0.095561
763.749	0.095268
764.062	0.095000
764.376	0.094731
764.689	0.094432
765.003	0.094134
765.316	0.093960
765.630	0.093883
765.943	0.093664
766.257	0.093545
766.570	0.093321
766.883	0.093121
767.196	0.092822
767.509	0.092409
767.822	0.092025
768.135	0.091656
768.448	0.091317
768.761	0.090857
769.074	0.090480
769.387	0.090134
769.700	0.089828
770.013	0.089602
770.325	0.089446
770.638	0.089312
770.950	0.089104
771.263	0.088913
771.575	0.088660
771.888	0.088244
772.200	0.087793
772.513	0.087376
772.825	0.087003
773.137	0.086681
773.449	0.086327
773.761	0.085934
774.074	0.085633
774.386	0.085377
774.698	0.085039
775.010	0.084558
775.321	0.084185
775.633	0.083778
775.945	0.083495
776.257	0.083254
776.568	0.083083
776.880	0.082895
777.192	0.082664
777.503	0.082559
777.815	0.082495
778.126	0.082494
778.438	0.082544
778.749	0.082692
779.060	0.082850
779.372	0.082870
779.683	0.082902
779.994	0.082944
780.305	0.082995
780.616	0.083053
780.927	0.083090
781.238	0.083073
781.549	0.083153
781.860	0.083242
782.171	0.083250
782.481	0.083222
782.792	0.083179
783.103	0.083131
783.413	0.083031
783.724	0.082878
784.034	0.082759
784.345	0.082561
784.655	0.082393
784.966	0.082316
785.276	0.082037
785.586	0.081827
785.896	0.081757
786.207	0.081682
786.517	0.081627
786.827	0.081584
787.137	0.081464
787.447	0.081306
787.757	0.081282
788.066	0.081292
788.376	0.081202
788.686	0.081114
788.996	0.081033
789.305	0.080921
789.615	0.080819
789.925	0.080720
790.234	0.080678
790.544	0.080699
790.853	0.080736
791.162	0.080838
791.472	0.080834
791.781	0.080966
792.090	0.081017
792.399	0.080919
792.708	0.080800
793.017	0.080632
793.326	0.080437
793.635	0.080322
793.944	0.080170
794.253	0.079914
794.562	0.079555
794.871	0.079376
795.179	0.079192
795.488	0.079028
795.797	0.078975
796.105	0.078817
796.414	0.078819
796.722	0.078759
797.031	0.078518
797.339	0.078172
797.647	0.077641
797.956	0.077151
798.264	0.076520
798.572	0.076066
798.880	0.075598
799.188	0.075151
799.496	0.074764
799.804	0.074626
800.112	0.074354
800.420	0.074249
800.728	0.074168
801.035	0.074169
801.343	0.073841
801.651	0.073466
801.958	0.073147
802.266	0.072872
802.573	0.072820
802.881	0.072828
803.188	0.072777
803.496	0.072882
803.803	0.073133
804.110	0.073390
804.417	0.073427
804.724	0.073394
805.032	0.073270
805.339	0.073194
805.646	0.073199
805.953	0.073083
806.259	0.072940
806.566	0.072783
806.873	0.072699
807.180	0.072574
807.486	0.072504
807.793	0.072592
808.100	0.072683
808.406	0.072664
808.713	0.072668
809.019	0.072330
809.326	0.071823
809.632	0.071516
809.938	0.070878
810.244	0.070329
810.551	0.069825
810.857	0.069387
811.163	0.069154
811.469	0.068916
811.775	0.068665
812.081	0.068512
812.387	0.068543
812.692	0.068525
812.998	0.068716
813.304	0.068646
813.610	0.068773
813.915	0.068802
814.221	0.068718
814.526	0.068761
814.832	0.068948
815.137	0.068706
815.443	0.068643
815.748	0.068669
816.053	0.068507
816.358	0.068482
816.664	0.068328
816.969	0.068228
817.274	0.068243
817.579	0.068187
817.884	0.068107
818.189	0.068182
818.493	0.068066
818.798	0.068031
819.103	0.067807
819.408	0.067380
819.712	0.067176
820.017	0.066812
820.321	0.066496
820.626	0.066347
820.930	0.065961
821.235	0.065475
821.539	0.065323
821.843	0.065349
822.148	0.065279
822.452	0.065411
822.756	0.065641
823.060	0.065586
823.364	0.065592
823.668	0.065582
823.972	0.065491
824.276	0.065633
824.580	0.065504
824.883	0.065602
825.187	0.065481
825.491	0.065451
825.795	0.065460
826.098	0.065452
826.402	0.065352
826.705	0.065507
827.008	0.065355
827.312	0.065362
827.615	0.065230
827.918	0.065017
828.222	0.064644
828.525	0.064448
828.828	0.064141
829.131	0.064098
829.434	0.063990
829.737	0.063620
830.040	0.062887
830.343	0.062487
830.645	0.062025
830.948	0.061690
831.251	0.061244
831.553	0.060851
831.856	0.060685
832.159	0.060921
832.461	0.060679
832.764	0.060673
833.066	0.060290
833.368	0.059957
833.671	0.059887
833.973	0.059885
834.275	0.059838
834.577	0.059997
834.879	0.059941
835.181	0.059550
835.483	0.059005
835.785	0.058603
836.087	0.058308
836.389	0.058349
836.690	0.057926
836.992	0.057240
837.294	0.056324
837.595	0.055276
837.897	0.054416
838.198	0.053588
838.500	0.052711
838.801	0.051980
839.103	0.051430
839.404	0.050860
839.705	0.050745
840.006	0.050310
840.307	0.050051
840.608	0.049824
840.910	0.049661
841.210	0.049900
841.511	0.049740
841.812	0.049754
842.113	0.049855
842.414	0.049572
842.715	0.049419
843.015	0.048847
843.316	0.048761
843.616	0.048441
843.917	0.048369
844.217	0.048327
844.518	0.048136
844.818	0.047468
845.118	0.047771
845.419	0.047551
845.719	0.047610
846.019	0.046836
846.319	0.046687
846.619	0.046654
846.919	0.046762
847.219	0.046312
847.519	0.045756
847.819	0.046321
848.118	0.045725
848.418	0.045492
848.718	0.045166
849.017	0.044794
849.317	0.045134
849.616	0.045200
849.916	0.046104
850.215	0.046967
850.515	0.048061
850.814	0.048475
851.113	0.049088
851.412	0.049452
851.712	0.049725
852.011	0.049747
852.310	0.050421
852.609	0.050816
852.908	0.051023
853.206	0.051269
853.505	0.051761
853.804	0.051867
854.103	0.051939
854.401	0.052071
854.700	0.052331
854.999	0.052336
855.297	0.052373
855.595	0.052531
855.894	0.052911
856.192	0.052694
856.491	0.052432
856.789	0.052087
857.087	0.052046
857.385	0.051579
857.683	0.051133
857.981	0.050843
858.279	0.050743
858.577	0.050153
858.875	0.049784
859.173	0.049277
859.471	0.048951
859.768	0.048011
860.066	0.047426
860.363	0.047073
860.661	0.046734
860.959	0.046452
861.256	0.046975
861.553	0.047383
861.851	0.046760
862.148	0.045360
862.445	0.045198
862.742	0.045011
863.039	0.043980
863.337	0.043421
863.634	0.043082
863.931	0.042635
864.227	0.042449
864.524	0.042187
864.821	0.042277
865.118	0.041509
865.415	0.041121
865.711	0.040716
866.008	0.040311
866.304	0.039894
866.601	0.039547
866.897	0.039485
867.194	0.039270
867.490	0.038500
867.786	0.037612
868.082	0.038069
868.379	0.038631
868.675	0.038888
868.971	0.038972
869.267	0.038917
869.563	0.039610
869.859	0.039856
870.154	0.039703
870.450	0.039258
870.746	0.038583
871.042	0.038849
871.337	0.038765
871.633	0.038409
871.928	0.037877
872.224	0.038155
872.519	0.037918
872.815	0.037347
873.110	0.037274
873.405	0.036725
873.700	0.036475
873.995	0.036761
874.291	0.036493
874.586	0.036581
874.881	0.035802
875.175	0.035631
875.470	0.035914
875.765	0.035664
876.060	0.035766
876.355	0.036367
876.649	0.036719
876.944	0.037574
877.238	0.037099
877.533	0.037361
877.827	0.038329
878.122	0.039079
878.416	0.039238
878.710	0.040327
879.005	0.040848
879.299	0.041093
879.593	0.040969
879.887	0.041132
880.181	0.040642
880.475	0.040927
880.769	0.040771
881.063	0.041072
881.356	0.041278
881.650	0.040797
881.944	0.040052
882.238	0.042017
882.531	0.035588
882.825	0.034688
883.118	0.023007
883.412	0.041834
883.705	0.031728
883.998	0.032437
884.291	0.043420
884.585	0.022859
884.878	0.027093
>>>>>>>>>> END of Data <<<<<<<<<<
>>>>>>>>>> Raw Data Start <<<<<<<<
190.664	-396
191.040	6
191.415	6
191.791	6
192.166	6
192.542	9
192.917	6
193.293	6
193.668	5
194.044	6
194.419	-10
194.794	10
195.170	10
195.545	10
195.920	11
196.296	11
196.671	12
197.046	12
197.421	13
197.796	13
198.171	14
198.546	14
198.922	15
199.297	15
199.672	15
200.047	16
200.422	16
200.796	16
201.171	16
201.546	16
201.921	16
202.296	16
202.671	16
203.045	17
203.420	17
203.795	17
204.170	17
204.544	17
204.919	17
205.294	16
205.668	16
206.043	16
206.417	16
206.792	16
207.166	16
207.541	15
207.915	15
208.289	15
208.664	15
209.038	15
209.412	15
209.787	15
210.161	15
210.535	15
210.909	15
211.284	15
211.658	15
212.032	15
212.406	15
212.780	15
213.154	15
213.528	16
213.902	15
214.276	16
214.650	15
215.024	16
215.398	16
215.772	15
216.145	16
216.519	16
216.893	16
217.267	16
217.640	16
218.014	16
218.388	17
218.761	16
219.135	16
219.508	17
219.882	17
220.256	17
220.629	17
221.003	16
221.376	16
221.749	17
222.123	17
222.496	17
222.869	17
223.243	17
223.616	17
223.989	17
224.362	17
224.736	17
225.109	17
225.482	17
225.855	16
226.228	16
226.601	17
226.974	17
227.347	16
227.720	16
228.093	16
228.466	16
228.839	16
229.212	16
229.585	16
229.957	16
230.330	16
230.703	16
231.076	17
231.448	17
231.821	16
232.194	16
232.566	17
232.939	16
233.311	16
233.684	16
234.056	16
234.429	16
234.801	16
235.174	16
235.546	16
235.918	17
236.291	17
236.663	17
237.035	17
237.408	17
237.780	17
238.152	17
238.524	17
238.896	17
239.268	17
239.641	17
240.013	17
240.385	17
240.757	18
241.129	18
241.500	18
241.872	18
242.244	18
242.616	18
242.988	18
243.360	18
243.731	18
244.103	18
244.475	18
244.847	19
245.218	18
245.590	18
245.961	18
246.333	18
246.705	18
247.076	18
247.448	18
247.819	18
248.190	18
248.562	18
248.933	18
249.305	18
249.676	18
250.047	18
250.418	19
250.790	19
251.161	18
251.532	18
251.903	18
252.274	18
252.645	18
253.016	18
253.387	18
253.758	18
254.129	18
254.500	19
254.871	19
255.242	19
255.613	19
255.984	19
256.355	19
256.725	19
257.096	19
257.467	19
257.838	18
258.208	19
258.579	19
258.949	19
259.320	19
259.690	19
260.061	19
260.431	19
260.802	19
261.172	19
261.543	19
261.913	19
262.283	19
262.654	19
263.024	19
263.394	19
263.764	19
264.135	19
264.505	20
264.875	20
265.245	20
265.615	20
265.985	20
266.355	19
266.725	20
267.095	20
267.465	20
267.835	20
268.205	20
268.575	19
268.944	20
269.314	19
269.684	19
270.054	19
270.423	19
270.793	19
271.163	19
271.532	19
271.902	19
272.271	19
272.641	19
273.010	19
273.380	19
273.749	19
274.119	19
274.488	19
274.857	18
275.227	19
275.596	19
275.965	19
276.335	19
276.704	19
277.073	19
277.442	19
277.811	19
278.180	19
278.549	19
278.918	19
279.287	20
279.656	20
280.025	20
280.394	20
280.763	20
281.132	20
281.501	20
281.869	19
282.238	19
282.607	19
282.976	19
283.344	19
283.713	19
284.081	19
284.450	19
284.819	19
285.187	19
285.556	19
285.924	19
286.292	19
286.661	19
287.029	19
287.398	19
287.766	19
288.134	19
288.502	19
288.871	19
289.239	19
289.607	19
289.975	19
290.343	19
290.711	19
291.079	20
291.447	20
291.815	20
292.183	20
292.551	19
292.919	20
293.287	20
293.655	20
294.022	20
294.390	20
294.758	20
295.126	20
295.493	19
295.861	19
296.229	19
296.596	19
296.964	19
297.331	19
297.699	19
298.066	19
298.434	19
298.801	19
299.168	19
299.536	19
299.903	19
300.270	19
300.638	20
301.005	19
301.372	20
301.739	20
302.106	20
302.473	21
302.840	21
303.207	21
303.574	21
303.941	21
304.308	21
304.675	21
305.042	21
305.409	21
305.776	21
306.143	21
306.509	22
306.876	22
307.243	22
307.610	22
307.976	22
308.343	22
308.709	22
309.076	22
309.442	22
309.809	22
310.175	22
310.542	22
310.908	23
311.275	24
311.641	24
312.007	25
312.373	25
312.740	26
313.106	26
313.472	26
313.838	27
314.204	27
314.570	28
314.936	29
315.302	30
315.668	31
316.034	32
316.400	32
316.766	33
317.132	34
317.498	35
317.864	36
318.230	37
318.595	38
318.961	39
319.327	40
319.692	42
320.058	43
320.424	45
320.789	46
321.155	48
321.520	50
321.886	51
322.251	53
322.616	54
322.982	57
323.347	59
323.712	62
324.078	65
324.443	68
324.808	70
325.173	73
325.539	75
325.904	78
326.269	80
326.634	83
326.999	86
327.364	88
327.729	91
328.094	94
328.459	97
328.823	100
329.188	103
329.553	106
329.918	109
330.283	112
330.647	115
331.012	118
331.377	121
331.741	124
332.106	127
332.470	130
332.835	133
333.199	136
333.564	139
333.928	143
334.293	146
334.657	149
335.021	153
335.386	156
335.750	160
336.114	163
336.478	167
336.843	171
337.207	174
337.571	178
337.935	181
338.299	185
338.663	188
339.027	192
339.391	194
339.755	198
340.119	202
340.483	205
340.846	208
341.210	212
341.574	215
341.938	218
342.301	221
342.665	224
343.029	228
343.392	230
343.756	233
344.119	236
344.483	239
344.846	242
345.210	244
345.573	247
345.937	249
346.300	252
346.663	255
347.027	257
347.390	260
347.753	262
348.116	264
348.479	267
348.843	269
349.206	271
349.569	273
349.932	276
350.295	278
350.658	280
351.021	281
351.383	283
351.746	285
352.109	287
352.472	289
352.835	291
353.197	292
353.560	294
353.923	296
354.285	298
354.648	300
355.011	301
355.373	303
355.736	304
356.098	306
356.461	307
356.823	309
357.185	310
357.548	311
357.910	313
358.272	314
358.635	316
358.997	318
359.359	319
359.721	320
360.083	322
360.445	323
360.807	324
361.169	326
361.531	327
361.893	328
362.255	329
362.617	330
362.979	332
363.341	333
363.703	335
364.064	336
364.426	338
364.788	339
365.149	341
365.511	342
365.873	343
366.234	343
366.596	344
366.957	345
367.319	346
367.680	346
368.042	347
368.403	348
368.764	348
369.126	348
369.487	349
369.848	349
370.209	349
370.570	349
370.931	349
371.293	349
371.654	349
372.015	349
372.376	349
372.737	349
373.098	350
373.458	350
373.819	351
374.180	351
374.541	352
374.902	353
375.263	354
375.623	355
375.984	356
376.345	358
376.705	359
377.066	360
377.426	361
377.787	363
378.147	364
378.508	365
378.868	366
379.228	367
379.589	368
379.949	370
380.309	371
380.670	371
381.030	372
381.390	373
381.750	374
382.110	375
382.470	375
382.830	375
383.190	376
383.550	377
383.910	377
384.270	378
384.630	380
384.990	381
385.350	382
385.709	383
386.069	384
386.429	385
386.788	386
387.148	387
387.508	388
387.867	389
388.227	391
388.586	393
388.946	395
389.305	397
389.665	399
390.024	401
390.383	404
390.743	406
391.102	408
391.461	409
391.820	411
392.179	412
392.539	413
392.898	414
393.257	416
393.616	417
393.975	420
394.334	422
394.693	426
395.051	430
395.410	433
395.769	436
396.128	438
396.487	440
396.845	441
397.204	442
397.563	443
397.921	444
398.280	445
398.638	446
398.997	448
399.355	449
399.714	450
400.072	451
400.431	453
400.789	455
401.147	456
401.506	458
401.864	460
402.222	461
402.580	461
402.938	461
403.297	461
403.655	461
404.013	461
404.371	462
404.729	463
405.087	464
405.444	465
405.802	467
406.160	468
406.518	470
406.876	472
407.233	473
407.591	475
407.949	476
408.306	477
408.664	479
409.022	480
409.379	482
409.737	483
410.094	485
410.451	488
410.809	490
411.166	493
411.523	495
411.881	497
412.238	500
412.595	502
412.952	504
413.310	506
413.667	507
414.024	509
414.381	511
414.738	513
415.095	515
415.452	518
415.809	521
416.165	523
416.522	526
416.879	529
417.236	532
417.593	537
417.949	542
418.306	549
418.663	555
419.019	562
419.376	570
419.732	576
420.089	582
420.445	588
420.802	594
421.158	600
421.514	605
421.871	611
422.227	615
422.583	619
422.939	623
423.295	627
423.652	631
424.008	635
424.364	638
424.720	640
425.076	643
425.432	645
425.788	648
426.143	651
426.499	655
426.855	660
427.211	664
427.567	669
427.922	673
428.278	676
428.634	678
428.989	681
429.345	684
429.700	688
430.056	692
430.411	697
430.767	703
431.122	708
431.478	712
431.833	717
432.188	722
432.543	725
432.899	729
433.254	731
433.609	733
433.964	734
434.319	735
434.674	737
435.029	740
435.384	743
435.739	747
436.094	752
436.449	759
436.804	766
437.158	775
437.513	783
437.868	794
438.223	804
438.577	815
438.932	827
439.287	838
439.641	850
439.996	862
440.350	873
440.704	885
441.059	897
441.413	910
441.768	922
442.122	933
442.476	944
442.830	955
443.185	966
443.539	976
443.893	987
444.247	996
444.601	1003
444.955	1009
445.309	1013
445.663	1017
446.017	1020
446.371	1022
446.724	1025
447.078	1027
447.432	1028
447.786	1028
448.139	1028
448.493	1029
448.847	1028
449.200	1027
449.554	1025
449.907	1024
450.261	1023
450.614	1022
450.968	1021
451.321	1020
451.674	1020
452.027	1019
452.381	1020
452.734	1021
453.087	1022
453.440	1024
453.793	1027
454.146	1030
454.499	1036
454.852	1044
455.205	1052
455.558	1060
455.911	1069
456.264	1078
456.617	1087
456.970	1095
457.322	1102
457.675	1109
458.028	1115
458.380	1120
458.733	1125
459.086	1130
459.438	1136
459.791	1143
460.143	1151
460.496	1162
460.848	1173
461.200	1187
461.553	1201
461.905	1213
462.257	1224
462.609	1234
462.961	1244
463.314	1252
463.666	1259
464.018	1265
464.370	1271
464.722	1278
465.074	1286
465.426	1292
465.777	1298
466.129	1302
466.481	1305
466.833	1307
467.184	1307
467.536	1305
467.888	1302
468.239	1299
468.591	1295
468.943	1293
469.294	1291
469.646	1292
469.997	1295
470.348	1300
470.700	1308
471.051	1319
471.402	1332
471.754	1348
472.105	1365
472.456	1382
472.807	1403
473.158	1425
473.509	1450
473.860	1477
474.211	1504
474.562	1533
474.913	1562
475.264	1594
475.615	1624
475.966	1655
476.316	1685
476.667	1715
477.018	1746
477.368	1777
477.719	1809
478.070	1839
478.420	1867
478.771	1895
479.121	1922
479.472	1950
479.822	1979
480.172	2011
480.523	2047
480.873	2098
481.223	2184
481.573	2312
481.924	2472
482.274	2654
482.624	2844
482.974	3034
483.324	3200
483.674	3326
484.024	3412
484.374	3469
484.724	3504
485.073	3529
485.423	3549
485.773	3569
486.123	3587
486.472	3605
486.822	3621
487.172	3635
487.521	3645
487.871	3648
488.220	3636
488.570	3587
488.919	3496
489.268	3372
489.618	3227
489.967	3071
490.316	2914
490.666	2778
491.015	2680
491.364	2620
491.713	2589
492.062	2578
492.411	2578
492.760	2583
493.109	2589
493.458	2596
493.807	2602
494.156	2606
494.505	2611
494.853	2616
495.202	2624
495.551	2635
495.900	2646
496.248	2659
496.597	2672
496.945	2684
497.294	2695
497.642	2708
497.991	2723
498.339	2740
498.688	2760
499.036	2778
499.384	2795
499.732	2810
500.081	2820
500.429	2830
500.777	2839
501.125	2847
501.473	2855
501.821	2865
502.169	2872
502.517	2879
502.865	2881
503.213	2883
503.561	2883
503.908	2882
504.256	2879
504.604	2876
504.952	2871
505.299	2865
505.647	2856
505.994	2846
506.342	2835
506.689	2823
507.037	2813
507.384	2806
507.732	2800
508.079	2794
508.426	2789
508.774	2784
509.121	2777
509.468	2771
509.815	2763
510.162	2757
510.509	2750
510.856	2741
511.203	2732
511.550	2724
511.897	2717
512.244	2708
512.591	2701
512.938	2693
513.284	2686
513.631	2678
513.978	2669
514.324	2660
514.671	2650
515.018	2639
515.364	2630
515.711	2621
516.057	2611
516.403	2603
516.750	2594
517.096	2583
517.443	2571
517.789	2560
518.135	2548
518.481	2539
518.827	2530
519.173	2519
519.519	2510
519.865	2501
520.211	2493
520.557	2485
520.903	2478
521.249	2472
521.595	2467
521.941	2460
522.287	2455
522.632	2449
522.978	2444
523.324	2440
523.669	2437
524.015	2437
524.360	2440
524.706	2445
525.051	2454
525.397	2464
525.742	2476
526.087	2488
526.433	2499
526.778	2508
527.123	2515
527.468	2522
527.813	2527
528.158	2532
528.504	2540
528.849	2551
529.193	2567
529.538	2585
529.883	2608
530.228	2635
530.573	2665
530.918	2696
531.263	2727
531.607	2755
531.952	2780
532.296	2801
532.641	2817
532.986	2830
533.330	2841
533.675	2853
534.019	2871
534.363	2893
534.708	2920
535.052	2951
535.396	2984
535.741	3016
536.085	3042
536.429	3067
536.773	3087
537.117	3102
537.461	3115
537.805	3127
538.149	3139
538.493	3152
538.837	3167
539.181	3186
539.524	3211
539.868	3239
540.212	3272
540.556	3307
540.899	3344
541.243	3376
541.586	3402
541.930	3421
542.273	3435
542.617	3444
542.960	3455
543.304	3470
543.647	3491
543.990	3518
544.333	3550
544.677	3582
545.020	3612
545.363	3637
545.706	3654
546.049	3666
546.392	3670
546.735	3668
547.078	3663
547.421	3659
547.764	3657
548.106	3656
548.449	3661
548.792	3672
549.135	3689
549.477	3712
549.820	3734
550.162	3752
550.505	3765
550.847	3772
551.190	3774
551.532	3773
551.875	3772
552.217	3774
552.559	3778
552.901	3789
553.244	3804
553.586	3822
553.928	3841
554.270	3857
554.612	3869
554.954	3876
555.296	3882
555.638	3886
555.980	3891
556.322	3899
556.663	3914
557.005	3938
557.347	3972
557.689	4007
558.030	4043
558.372	4075
558.713	4103
559.055	4130
559.396	4155
559.738	4182
560.079	4213
560.421	4249
560.762	4291
561.103	4338
561.444	4392
561.786	4448
562.127	4508
562.468	4574
562.809	4647
563.150	4729
563.491	4818
563.832	4915
564.173	5028
564.514	5159
564.855	5317
565.195	5513
565.536	5749
565.877	6025
566.218	6341
566.558	6698
566.899	7089
567.239	7511
567.580	7953
567.920	8408
568.261	8865
568.601	9334
568.941	9818
569.282	10315
569.622	10832
569.962	11367
570.302	11937
570.643	12525
570.983	13116
571.323	13685
571.663	14231
572.003	14747
572.343	15228
572.683	15675
573.022	16129
573.362	16605
573.702	17095
574.042	17583
574.381	18048
574.721	18489
575.061	18910
575.400	19289
575.740	19623
576.079	19915
576.419	20204
576.758	20535
577.097	20929
577.437	21361
577.776	21823
578.115	22307
578.454	22798
578.794	23245
579.133	23587
579.472	23812
579.811	23932
580.150	23951
580.489	23892
580.828	23799
581.167	23709
581.505	23638
581.844	23576
582.183	23515
582.522	23473
582.860	23446
583.199	23420
583.538	23362
583.876	23230
584.215	23001
584.553	22664
584.891	22227
585.230	21699
585.568	21118
585.906	20532
586.245	20003
586.583	19546
586.921	19168
587.259	18824
587.597	18479
587.935	18122
588.273	17758
588.611	17417
588.949	17114
589.287	16856
589.625	16650
589.963	16483
590.300	16347
590.638	16221
590.976	16084
591.313	15927
591.651	15775
591.989	15643
592.326	15534
592.664	15440
593.001	15361
593.338	15308
593.676	15276
594.013	15274
594.350	15319
594.687	15405
595.025	15501
595.362	15588
595.699	15645
596.036	15678
596.373	15676
596.710	15633
597.047	15563
597.384	15481
597.720	15392
598.057	15317
598.394	15260
598.731	15224
599.067	15212
599.404	15230
599.741	15281
600.077	15359
600.414	15448
600.750	15543
601.087	15612
601.423	15641
601.759	15635
602.096	15601
602.432	15548
602.768	15470
603.104	15365
603.440	15238
603.776	15103
604.112	14958
604.448	14811
604.784	14657
605.120	14493
605.456	14333
605.792	14167
606.128	13994
606.463	13815
606.799	13636
607.135	13474
607.470	13311
607.806	13151
608.142	12996
608.477	12846
608.812	12702
609.148	12558
609.483	12406
609.819	12251
610.154	12104
610.489	11968
610.824	11849
611.159	11747
611.494	11645
611.830	11555
612.165	11466
612.500	11367
612.834	11253
613.169	11124
613.504	10983
613.839	10828
614.174	10651
614.509	10475
614.843	10299
615.178	10131
615.512	9965
615.847	9802
616.182	9640
616.516	9477
616.850	9305
617.185	9126
617.519	8944
617.853	8749
618.188	8548
618.522	8364
618.856	8207
619.190	8071
619.524	7952
619.858	7856
620.192	7780
620.526	7712
620.860	7645
621.194	7580
621.528	7517
621.862	7453
622.195	7377
622.529	7297
622.863	7213
623.196	7129
623.530	7045
623.864	6961
624.197	6876
624.530	6793
624.864	6719
625.197	6642
625.531	6554
625.864	6450
626.197	6338
626.530	6217
626.863	6081
627.196	5933
627.529	5784
627.862	5637
628.195	5491
628.528	5347
628.861	5210
629.194	5086
629.527	4969
629.860	4853
630.192	4738
630.525	4631
630.858	4531
631.190	4436
631.523	4344
631.855	4258
632.188	4183
632.520	4113
632.852	4047
633.185	3979
633.517	3914
633.849	3854
634.182	3801
634.514	3749
634.846	3703
635.178	3661
635.510	3625
635.842	3592
636.174	3560
636.506	3527
636.837	3496
637.169	3465
637.501	3432
637.833	3396
638.164	3355
638.496	3311
638.828	3261
639.159	3204
639.491	3143
639.822	3079
640.154	3015
640.485	2952
640.816	2890
641.147	2828
641.479	2769
641.810	2712
642.141	2655
642.472	2600
642.803	2546
643.134	2494
643.465	2449
643.796	2413
644.127	2388
644.458	2374
644.789	2373
645.119	2386
645.450	2407
645.781	2432
646.111	2456
646.442	2477
646.773	2493
647.103	2506
647.433	2517
647.764	2529
648.094	2545
648.425	2564
648.755	2589
649.085	2617
649.415	2646
649.745	2677
650.075	2709
650.405	2745
650.735	2824
651.065	3389
651.395	5145
651.725	8042
652.055	11687
652.385	15326
652.715	18965
653.044	22606
653.374	26252
653.704	29903
654.033	32561
654.363	34338
654.692	35516
655.022	36285
655.351	36790
655.680	37102
656.010	37272
656.339	37349
656.668	37370
656.997	37361
657.326	37331
657.655	37244
657.984	36660
658.313	34877
658.642	31941
658.971	28249
659.300	24558
659.629	20866
659.958	17175
660.286	13485
660.615	9795
660.944	7106
661.272	5302
661.601	4098
661.929	3301
662.258	2764
662.586	2413
662.915	2198
663.243	2074
663.571	2003
663.899	1960
664.228	1932
664.556	1914
664.884	1902
665.212	1892
665.540	1885
665.868	1882
666.196	1880
666.524	1878
666.852	1879
667.179	1887
667.507	1900
667.835	1921
668.162	1949
668.490	1983
668.818	2023
669.145	2066
669.473	2108
669.800	2147
670.127	2182
670.455	2211
670.782	2236
671.109	2257
671.436	2275
671.764	2289
672.091	2301
672.418	2312
672.745	2320
673.072	2328
673.399	2339
673.726	2349
674.053	2357
674.379	2360
674.706	2360
675.033	2358
675.359	2354
675.686	2348
676.013	2345
676.339	2346
676.666	2353
676.992	2370
677.318	2393
677.645	2420
677.971	2446
678.297	2469
678.624	2491
678.950	2512
679.276	2532
679.602	2552
679.928	2572
680.254	2598
680.580	2630
680.906	2671
681.232	2722
681.558	2775
681.883	2827
682.209	2876
682.535	2921
682.860	2963
683.186	2997
683.511	3025
683.837	3042
684.162	3056
684.488	3067
684.813	3078
685.138	3088
685.464	3097
685.789	3104
686.114	3112
686.439	3122
686.764	3133
687.089	3140
687.414	3140
687.739	3130
688.064	3111
688.389	3086
688.714	3058
689.039	3027
689.363	2994
689.688	2958
690.013	2923
690.337	2892
690.662	2866
690.986	2843
691.311	2820
691.635	2797
691.959	2775
692.284	2760
692.608	2755
692.932	2759
693.256	2768
693.580	2779
693.904	2794
694.228	2811
694.552	2827
694.876	2834
695.200	2831
695.524	2818
695.848	2800
696.172	2777
696.495	2752
696.819	2727
697.143	2701
697.466	2675
697.790	2652
698.113	2636
698.437	2628
698.760	2626
699.083	2625
699.407	2617
699.730	2604
700.053	2582
700.376	2553
700.699	2511
701.022	2459
701.345	2403
701.668	2350
701.991	2306
702.314	2275
702.637	2261
702.960	2266
703.283	2290
703.605	2331
703.928	2387
704.251	2450
704.573	2513
704.896	2570
705.218	2616
705.540	2653
705.863	2682
706.185	2707
706.507	2727
706.830	2747
707.152	2767
707.474	2789
707.796	2814
708.118	2840
708.440	2866
708.762	2888
709.084	2905
709.406	2915
709.728	2916
710.049	2910
710.371	2898
710.693	2878
711.014	2857
711.336	2836
711.658	2818
711.979	2801
712.301	2785
712.622	2768
712.943	2749
713.265	2725
713.586	2700
713.907	2677
714.228	2656
714.549	2640
714.870	2628
715.191	2623
715.512	2621
715.833	2617
716.154	2610
716.475	2598
716.796	2582
717.117	2557
717.437	2528
717.758	2496
718.078	2463
718.399	2431
718.719	2403
719.040	2378
719.360	2359
719.681	2345
720.001	2336
720.321	2331
720.642	2329
720.962	2331
721.282	2336
721.602	2343
721.922	2352
722.242	2363
722.562	2378
722.882	2396
723.202	2413
723.521	2428
723.841	2444
724.161	2460
724.481	2477
724.800	2493
725.120	2515
725.439	2541
725.759	2571
726.078	2604
726.398	2646
726.717	2697
727.036	2754
727.355	2815
727.675	2875
727.994	2931
728.313	2985
728.632	3032
728.951	3071
729.270	3104
729.589	3135
729.908	3174
730.226	3217
730.545	3265
730.864	3317
731.182	3374
731.501	3430
731.820	3485
732.138	3531
732.457	3573
732.775	3611
733.093	3642
733.412	3660
733.730	3664
734.048	3656
734.367	3640
734.685	3617
735.003	3593
735.321	3570
735.639	3552
735.957	3538
736.275	3524
736.593	3504
736.910	3475
737.228	3434
737.546	3380
737.863	3318
738.181	3250
738.499	3178
738.816	3107
739.134	3037
739.451	2966
739.768	2896
740.086	2828
740.403	2764
740.720	2705
741.038	2649
741.355	2596
741.672	2543
741.989	2489
742.306	2433
742.623	2375
742.940	2319
743.257	2268
743.573	2223
743.890	2186
744.207	2159
744.523	2140
744.840	2127
745.157	2119
745.473	2118
745.790	2126
746.106	2143
746.422	2168
746.739	2199
747.055	2236
747.371	2279
747.687	2324
748.004	2366
748.320	2403
748.636	2436
748.952	2470
749.268	2503
749.584	2535
749.899	2563
750.215	2593
750.531	2626
750.847	2663
751.162	2701
751.478	2737
751.793	2776
752.109	2817
752.424	2860
752.740	2905
753.055	2956
753.370	3016
753.686	3087
754.001	3163
754.316	3242
754.631	3326
754.946	3416
755.261	3510
755.576	3600
755.891	3688
756.206	3776
756.521	3868
756.836	3961
757.150	4052
757.465	4131
757.780	4199
758.094	4257
758.409	4301
758.723	4329
759.038	4342
759.352	4342
759.667	4330
759.981	4309
760.295	4288
760.609	4271
760.923	4261
761.238	4256
761.552	4252
761.866	4247
762.180	4239
762.493	4216
762.807	4172
763.121	4105
763.435	4021
763.749	3929
764.062	3842
764.376	3770
764.689	3720
765.003	3693
765.316	3689
765.630	3701
765.943	3723
766.257	3748
766.570	3770
766.883	3776
767.196	3768
767.509	3744
767.822	3710
768.135	3664
768.448	3614
768.761	3562
769.074	3517
769.387	3483
769.700	3461
770.013	3448
770.325	3438
770.638	3422
770.950	3394
771.263	3349
771.575	3287
771.888	3206
772.200	3113
772.513	3011
772.825	2904
773.137	2794
773.449	2686
773.761	2582
774.074	2485
774.386	2398
774.698	2326
775.010	2267
775.321	2225
775.633	2197
775.945	2182
776.257	2173
776.568	2171
776.880	2178
777.192	2195
777.503	2219
777.815	2249
778.126	2287
778.438	2333
778.749	2383
779.060	2431
779.372	2477
779.683	2521
779.994	2561
780.305	2593
780.616	2614
780.927	2628
781.238	2633
781.549	2627
781.860	2610
782.171	2586
782.481	2560
782.792	2533
783.103	2507
783.413	2478
783.724	2448
784.034	2418
784.345	2391
784.655	2367
784.966	2341
785.276	2315
785.586	2290
785.896	2263
786.207	2236
786.517	2207
786.827	2179
787.137	2152
787.447	2126
787.757	2102
788.066	2078
788.376	2056
788.686	2033
788.996	2010
789.305	1988
789.615	1970
789.925	1960
790.234	1957
790.544	1962
790.853	1971
791.162	1982
791.472	1991
791.781	1995
792.090	1991
792.399	1979
792.708	1960
793.017	1940
793.326	1920
793.635	1901
793.944	1883
794.253	1868
794.562	1858
794.871	1852
795.179	1847
795.488	1841
795.797	1831
796.105	1814
796.414	1787
796.722	1750
797.031	1704
797.339	1648
797.647	1585
797.956	1519
798.264	1458
798.572	1407
798.880	1368
799.188	1339
799.496	1318
799.804	1302
800.112	1290
800.420	1280
800.728	1270
801.035	1256
801.343	1241
801.651	1229
801.958	1226
802.266	1231
802.573	1242
802.881	1255
803.188	1272
803.496	1290
803.803	1308
804.110	1325
804.417	1340
804.724	1353
805.032	1366
805.339	1376
805.646	1383
805.953	1387
806.259	1388
806.566	1386
806.873	1380
807.180	1374
807.486	1367
807.793	1358
808.100	1344
808.406	1322
808.713	1291
809.019	1256
809.326	1221
809.632	1187
809.938	1155
810.244	1127
810.551	1102
810.857	1082
811.163	1064
811.469	1045
811.775	1025
812.081	1004
812.387	985
812.692	970
812.998	958
813.304	949
813.610	941
813.915	935
814.221	930
814.526	925
814.832	921
815.137	917
815.443	912
815.748	903
816.053	891
816.358	878
816.664	867
816.969	857
817.274	848
817.579	841
817.884	837
818.189	835
818.493	835
818.798	833
819.103	827
819.408	820
819.712	810
820.017	800
820.321	789
820.626	778
820.930	769
821.235	762
821.539	759
821.843	759
822.148	761
822.452	762
822.756	761
823.060	758
823.364	754
823.668	747
823.972	740
824.276	731
824.580	725
824.883	722
825.187	721
825.491	721
825.795	721
826.098	721
826.402	720
826.705	717
827.008	712
827.312	705
827.615	693
827.918	679
828.222	663
828.525	646
828.828	631
829.131	615
829.434	599
829.737	584
830.040	572
830.343	563
830.645	554
830.948	546
831.251	538
831.553	531
831.856	525
832.159	519
832.461	512
832.764	504
833.066	497
833.368	492
833.671	487
833.973	484
834.275	481
834.577	477
834.879	473
835.181	468
835.483	463
835.785	457
836.087	449
836.389	439
836.690	428
836.992	416
837.294	404
837.595	391
837.897	377
838.198	364
838.500	351
838.801	340
839.103	330
839.404	322
839.705	314
840.006	308
840.307	304
840.608	300
840.910	298
841.210	296
841.511	294
841.812	291
842.113	287
842.414	283
842.715	278
843.015	272
843.316	266
843.616	261
843.917	255
844.217	251
844.518	247
844.818	244
845.118	242
845.419	241
845.719	240
846.019	239
846.319	238
846.619	236
846.919	235
847.219	234
847.519	233
847.819	231
848.118	232
848.418	234
848.718	242
849.017	253
849.317	270
849.616	290
849.916	313
850.215	338
850.515	365
850.814	392
851.113	417
851.412	439
851.712	458
852.011	477
852.310	495
852.609	510
852.908	524
853.206	536
853.505	547
853.804	556
854.103	565
854.401	571
854.700	573
854.999	571
855.297	564
855.595	552
855.894	536
856.192	516
856.491	494
856.789	470
857.087	444
857.385	421
857.683	400
857.981	381
858.279	363
858.577	346
858.875	331
859.173	319
859.471	310
859.768	302
860.066	295
860.363	289
860.661	284
860.959	280
861.256	276
861.553	272
861.851	266
862.148	262
862.445	256
862.742	251
863.039	247
863.337	244
863.634	241
863.931	239
864.227	238
864.524	237
864.821	237
865.118	237
865.415	235
865.711	231
866.008	227
866.304	223
866.601	219
866.897	215
867.194	212
867.490	210
867.786	209
868.082	209
868.379	209
868.675	209
868.971	209
869.267	210
869.563	209
869.859	209
870.154	208
870.450	207
870.746	206
871.042	205
871.337	205
871.633	205
871.928	206
872.224	208
872.519	210
872.815	211
873.110	212
873.405	212
873.700	211
873.995	210
874.291	210
874.586	211
874.881	213
875.175	215
875.470	218
875.765	222
876.060	226
876.355	231
876.649	235
876.944	239
877.238	243
877.533	247
877.827	249
878.122	251
878.416	252
878.710	252
879.005	251
879.299	250
879.593	249
879.887	247
880.181	246
880.475	245
880.769	243
881.063	240
881.356	238
881.650	235
881.944	231
882.238	189
882.531	184
882.825	181
883.118	189
883.412	184
883.705	185
883.998	192
884.291	192
884.585	202
884.878	209
>>>>>>>>>> END of Data <<<<<<<<<<