Date	2021年06月15日火曜日 04時56分01秒
Spectrometers	USB2+H05879
ダーク	使用
リファレンス	使用
積分時間[msec]	10
平均回数	280
ｽﾑｰｼﾞﾝｸﾞ	10
Electrical Dark	USE
ピクセル数	2048
計測モード	吸光度
保存開始波長[nm]	190.664
保存終了波長[nm]	884.878
保存ﾋﾟｯﾁ波長[nm]	全波長

>>>>>>>>>> Data Start <<<<<<<<<<<<
190.664	0.000000
191.040	0.000000
191.415	0.000000
191.791	-1.824783
192.166	-0.288148
192.542	-0.901432
192.917	0.000000
193.293	-0.448330
193.668	-0.560230
194.044	-1.105886
194.419	0.000000
194.794	-1.394480
195.170	-1.316647
195.545	-1.231467
195.920	-1.106895
196.296	-0.996641
196.671	-0.834764
197.046	-0.678621
197.421	-0.630078
197.796	-0.623216
198.171	-0.583770
198.546	-0.538920
198.922	-0.479464
199.297	-0.460603
199.672	-0.434177
200.047	-0.408928
200.422	-0.379097
200.796	-0.368523
201.171	-0.347538
201.546	-0.344429
201.921	-0.332682
202.296	-0.323849
202.671	-0.299748
203.045	-0.271050
203.420	-0.260285
203.795	-0.249982
204.170	-0.242761
204.544	-0.241775
204.919	-0.242292
205.294	-0.235990
205.668	-0.222164
206.043	-0.209618
206.417	-0.216892
206.792	-0.215693
207.166	-0.204647
207.541	-0.203199
207.915	-0.204947
208.289	-0.193617
208.664	-0.189798
209.038	-0.187025
209.412	-0.167952
209.787	-0.149767
210.161	-0.136635
210.535	-0.133227
210.909	-0.124609
211.284	-0.118924
211.658	-0.122338
212.032	-0.124193
212.406	-0.122012
212.780	-0.122432
213.154	-0.124291
213.528	-0.123948
213.902	-0.121547
214.276	-0.113866
214.650	-0.113127
215.024	-0.110298
215.398	-0.108914
215.772	-0.099691
216.145	-0.095796
216.519	-0.087502
216.893	-0.083149
217.267	-0.092001
217.640	-0.096455
218.014	-0.086472
218.388	-0.081194
218.761	-0.094084
219.135	-0.085813
219.508	-0.077974
219.882	-0.085485
220.256	-0.081397
220.629	-0.073815
221.003	-0.071539
221.376	-0.064598
221.749	-0.074957
222.123	-0.078601
222.496	-0.080572
222.869	-0.082774
223.243	-0.076789
223.616	-0.076145
223.989	-0.080737
224.362	-0.083276
224.736	-0.089823
225.109	-0.089169
225.482	-0.095992
225.855	-0.100913
226.228	-0.104295
226.601	-0.101007
226.974	-0.098546
227.347	-0.098869
227.720	-0.092210
228.093	-0.098340
228.466	-0.102440
228.839	-0.100450
229.212	-0.111016
229.585	-0.115286
229.957	-0.115517
230.330	-0.115944
230.703	-0.111769
231.076	-0.111003
231.448	-0.120567
231.821	-0.120183
232.194	-0.118077
232.566	-0.119778
232.939	-0.121725
233.311	-0.120433
233.684	-0.117891
234.056	-0.116939
234.429	-0.114321
234.801	-0.117108
235.174	-0.113966
235.546	-0.113492
235.918	-0.109871
236.291	-0.111753
236.663	-0.109236
237.035	-0.096844
237.408	-0.084883
237.780	-0.068634
238.152	-0.070365
238.524	-0.081501
238.896	-0.084774
239.268	-0.078923
239.641	-0.084759
240.013	-0.069357
240.385	-0.063522
240.757	-0.065380
241.129	-0.062583
241.500	-0.067995
241.872	-0.065654
242.244	-0.061996
242.616	-0.060627
242.988	-0.058764
243.360	-0.050379
243.731	-0.041654
244.103	-0.043424
244.475	-0.043534
244.847	-0.049686
245.218	-0.050879
245.590	-0.047730
245.961	-0.044467
246.333	-0.031408
246.705	-0.031416
247.076	-0.029226
247.448	-0.021692
247.819	-0.030517
248.190	-0.021959
248.562	-0.023164
248.933	-0.014758
249.305	-0.009369
249.676	-0.005587
250.047	-0.008867
250.418	-0.008566
250.790	-0.008315
251.161	-0.013042
251.532	-0.024799
251.903	-0.023864
252.274	-0.020514
252.645	-0.011797
253.016	-0.014388
253.387	-0.026591
253.758	-0.025947
254.129	-0.031904
254.500	-0.025443
254.871	-0.018638
255.242	-0.020162
255.613	-0.022820
255.984	-0.031063
256.355	-0.023149
256.725	-0.026557
257.096	-0.030128
257.467	-0.028039
257.838	-0.027207
258.208	-0.028154
258.579	-0.024660
258.949	-0.023367
259.320	-0.013351
259.690	-0.008554
260.061	-0.003897
260.431	0.002965
260.802	0.004343
261.172	0.008205
261.543	0.010759
261.913	0.009117
262.283	0.008815
262.654	0.003570
263.024	0.004717
263.394	0.008720
263.764	0.011372
264.135	0.010567
264.505	0.007658
264.875	0.015150
265.245	0.017145
265.615	0.017496
265.985	0.024115
266.355	0.023774
266.725	0.023059
267.095	0.018179
267.465	0.020730
267.835	0.012936
268.205	-0.003878
268.575	0.005004
268.944	0.011885
269.314	0.011453
269.684	0.021910
270.054	0.013004
270.423	0.012999
270.793	0.014972
271.163	0.012901
271.532	0.016236
271.902	0.021163
272.271	0.023413
272.641	0.021894
273.010	0.012399
273.380	0.009380
273.749	0.005704
274.119	0.009053
274.488	0.019938
274.857	0.032208
275.227	0.029146
275.596	0.037036
275.965	0.052717
276.335	0.053888
276.704	0.047015
277.073	0.049096
277.442	0.047745
277.811	0.051780
278.180	0.057491
278.549	0.056101
278.918	0.054404
279.287	0.057688
279.656	0.057641
280.025	0.053642
280.394	0.052466
280.763	0.058151
281.132	0.062024
281.501	0.068322
281.869	0.063725
282.238	0.058540
282.607	0.049420
282.976	0.052732
283.344	0.054646
283.713	0.047418
284.081	0.041202
284.450	0.051738
284.819	0.052902
285.187	0.058742
285.556	0.063940
285.924	0.059250
286.292	0.057032
286.661	0.055819
287.029	0.051962
287.398	0.046320
287.766	0.051220
288.134	0.050173
288.502	0.050560
288.871	0.056785
289.239	0.054047
289.607	0.053446
289.975	0.051691
290.343	0.052236
290.711	0.053216
291.079	0.050083
291.447	0.048475
291.815	0.054601
292.183	0.053671
292.551	0.053861
292.919	0.056012
293.287	0.056177
293.655	0.060305
294.022	0.059062
294.390	0.065576
294.758	0.064327
295.126	0.068112
295.493	0.070561
295.861	0.077020
296.229	0.076703
296.596	0.075109
296.964	0.072913
297.331	0.075412
297.699	0.080021
298.066	0.089014
298.434	0.091082
298.801	0.092246
299.168	0.098837
299.536	0.103005
299.903	0.099513
300.270	0.097996
300.638	0.098091
301.005	0.105524
301.372	0.112649
301.739	0.126566
302.106	0.136843
302.473	0.151609
302.840	0.167607
303.207	0.186238
303.574	0.195461
303.941	0.211711
304.308	0.226688
304.675	0.242112
305.042	0.261252
305.409	0.280726
305.776	0.296958
306.143	0.314803
306.509	0.337944
306.876	0.362735
307.243	0.381257
307.610	0.406918
307.976	0.436280
308.343	0.465566
308.709	0.489014
309.076	0.515890
309.442	0.542893
309.809	0.564405
310.175	0.588061
310.542	0.608357
310.908	0.633356
311.275	0.659245
311.641	0.683047
312.007	0.709885
312.373	0.737098
312.740	0.763465
313.106	0.787294
313.472	0.813248
313.838	0.839581
314.204	0.861079
314.570	0.875332
314.936	0.894379
315.302	0.915471
315.668	0.937483
316.034	0.959853
316.400	0.988383
316.766	1.007119
317.132	1.029910
317.498	1.049439
317.864	1.064147
318.230	1.081604
318.595	1.096279
318.961	1.110895
319.327	1.128006
319.692	1.138940
320.058	1.147916
320.424	1.159581
320.789	1.172274
321.155	1.183403
321.520	1.196988
321.886	1.212533
322.251	1.224589
322.616	1.235283
322.982	1.241048
323.347	1.250307
323.712	1.257952
324.078	1.262426
324.443	1.269996
324.808	1.272707
325.173	1.277291
325.539	1.286014
325.904	1.290952
326.269	1.293289
326.634	1.298010
326.999	1.299779
327.364	1.303468
327.729	1.308117
328.094	1.310929
328.459	1.314194
328.823	1.316457
329.188	1.317962
329.553	1.318357
329.918	1.324862
330.283	1.328434
330.647	1.334095
331.012	1.334707
331.377	1.336049
331.741	1.336514
332.106	1.338040
332.470	1.339444
332.835	1.342619
333.199	1.341342
333.564	1.342919
333.928	1.344928
334.293	1.345611
334.657	1.346237
335.021	1.347241
335.386	1.347936
335.750	1.348213
336.114	1.346467
336.478	1.346129
336.843	1.345777
337.207	1.345235
337.571	1.343883
337.935	1.342571
338.299	1.341294
338.663	1.340291
339.027	1.339061
339.391	1.339468
339.755	1.338246
340.119	1.337715
340.483	1.336228
340.846	1.337198
341.210	1.336968
341.574	1.336618
341.938	1.335187
342.301	1.335627
342.665	1.335839
343.029	1.335644
343.392	1.335991
343.756	1.337009
344.119	1.336769
344.483	1.336987
344.846	1.337205
345.210	1.337763
345.573	1.337783
345.937	1.337623
346.300	1.337505
346.663	1.337797
347.027	1.337353
347.390	1.337489
347.753	1.337209
348.116	1.336989
348.479	1.336967
348.843	1.336219
349.206	1.335373
349.569	1.335714
349.932	1.335666
350.295	1.335437
350.658	1.335702
351.021	1.335983
351.383	1.336358
351.746	1.336518
352.109	1.336375
352.472	1.335977
352.835	1.335197
353.197	1.335759
353.560	1.336180
353.923	1.335435
354.285	1.334910
354.648	1.334839
355.011	1.334599
355.373	1.334859
355.736	1.335351
356.098	1.334630
356.461	1.335093
356.823	1.335436
357.185	1.336251
357.548	1.336324
357.910	1.336412
358.272	1.335985
358.635	1.335450
358.997	1.335054
359.359	1.335869
359.721	1.335553
360.083	1.336719
360.445	1.337586
360.807	1.337263
361.169	1.337152
361.531	1.338510
361.893	1.339025
362.255	1.339545
362.617	1.340094
362.979	1.340322
363.341	1.340110
363.703	1.341352
364.064	1.341772
364.426	1.342244
364.788	1.342653
365.149	1.343069
365.511	1.343536
365.873	1.343922
366.234	1.344832
366.596	1.345024
366.957	1.345096
367.319	1.345926
367.680	1.346054
368.042	1.345477
368.403	1.346440
368.764	1.347378
369.126	1.347542
369.487	1.348235
369.848	1.348516
370.209	1.349447
370.570	1.350345
370.931	1.351439
371.293	1.351541
371.654	1.352151
372.015	1.353479
372.376	1.354020
372.737	1.354327
373.098	1.354642
373.458	1.355843
373.819	1.356806
374.180	1.358215
374.541	1.358757
374.902	1.359626
375.263	1.360176
375.623	1.361178
375.984	1.361961
376.345	1.362092
376.705	1.363512
377.066	1.364321
377.426	1.364770
377.787	1.364912
378.147	1.365782
378.508	1.366446
378.868	1.367044
379.228	1.367265
379.589	1.367216
379.949	1.367907
380.309	1.369258
380.670	1.370122
381.030	1.370345
381.390	1.370982
381.750	1.370512
382.110	1.371168
382.470	1.372034
382.830	1.372365
383.190	1.373774
383.550	1.374078
383.910	1.375377
384.270	1.375770
384.630	1.376861
384.990	1.378550
385.350	1.379327
385.709	1.380042
386.069	1.380976
386.429	1.381611
386.788	1.383320
387.148	1.384186
387.508	1.384751
387.867	1.385459
388.227	1.386143
388.586	1.387500
388.946	1.388581
389.305	1.390156
389.665	1.391071
390.024	1.392102
390.383	1.392930
390.743	1.392683
391.102	1.394007
391.461	1.394211
391.820	1.394944
392.179	1.394905
392.539	1.395353
392.898	1.396722
393.257	1.397193
393.616	1.398215
393.975	1.398895
394.334	1.399385
394.693	1.400077
395.051	1.401073
395.410	1.401812
395.769	1.402547
396.128	1.403104
396.487	1.403214
396.845	1.403532
397.204	1.403707
397.563	1.403657
397.921	1.403784
398.280	1.404535
398.638	1.404078
398.997	1.404001
399.355	1.403968
399.714	1.404441
400.072	1.404030
400.431	1.403658
400.789	1.403462
401.147	1.403174
401.506	1.403196
401.864	1.403221
402.222	1.403040
402.580	1.402475
402.938	1.402097
403.297	1.401958
403.655	1.401495
404.013	1.401217
404.371	1.401064
404.729	1.401481
405.087	1.401459
405.444	1.401794
405.802	1.401698
406.160	1.401634
406.518	1.401673
406.876	1.401466
407.233	1.401598
407.591	1.401825
407.949	1.401379
408.306	1.401295
408.664	1.401368
409.022	1.401623
409.379	1.401090
409.737	1.400842
410.094	1.400680
410.451	1.400249
410.809	1.400053
411.166	1.399719
411.523	1.399586
411.881	1.399577
412.238	1.398711
412.595	1.398063
412.952	1.397555
413.310	1.397030
413.667	1.397014
414.024	1.397084
414.381	1.397076
414.738	1.395993
415.095	1.395299
415.452	1.395501
415.809	1.395317
416.165	1.394577
416.522	1.393849
416.879	1.393219
417.236	1.392745
417.593	1.392001
417.949	1.391110
418.306	1.390710
418.663	1.391090
419.019	1.390136
419.376	1.389348
419.732	1.388939
420.089	1.388749
420.445	1.388562
420.802	1.388332
421.158	1.387679
421.514	1.386889
421.871	1.385618
422.227	1.385234
422.583	1.385088
422.939	1.383719
423.295	1.382385
423.652	1.381349
424.008	1.380276
424.364	1.379960
424.720	1.379318
425.076	1.379031
425.432	1.378627
425.788	1.377816
426.143	1.376575
426.499	1.375812
426.855	1.375099
427.211	1.374477
427.567	1.373646
427.922	1.372759
428.278	1.371387
428.634	1.370958
428.989	1.370294
429.345	1.370001
429.700	1.369245
430.056	1.368636
430.411	1.368448
430.767	1.367999
431.122	1.367431
431.478	1.366585
431.833	1.365247
432.188	1.363906
432.543	1.362804
432.899	1.361581
433.254	1.360211
433.609	1.358559
433.964	1.357604
434.319	1.356138
434.674	1.354748
435.029	1.353010
435.384	1.351079
435.739	1.349605
436.094	1.347834
436.449	1.346364
436.804	1.344894
437.158	1.343205
437.513	1.341697
437.868	1.339898
438.223	1.338501
438.577	1.336249
438.932	1.335356
439.287	1.334085
439.641	1.332862
439.996	1.330952
440.350	1.329244
440.704	1.327646
441.059	1.326165
441.413	1.324068
441.768	1.322290
442.122	1.320792
442.476	1.318929
442.830	1.317281
443.185	1.315435
443.539	1.313462
443.893	1.311442
444.247	1.309288
444.601	1.307525
444.955	1.304966
445.309	1.302634
445.663	1.300134
446.017	1.298104
446.371	1.295030
446.724	1.292273
447.078	1.289503
447.432	1.287206
447.786	1.284765
448.139	1.281869
448.493	1.279014
448.847	1.276311
449.200	1.273390
449.554	1.270247
449.907	1.267531
450.261	1.264356
450.614	1.261792
450.968	1.258720
451.321	1.255600
451.674	1.252378
452.027	1.249055
452.381	1.245917
452.734	1.242767
453.087	1.239554
453.440	1.236048
453.793	1.232925
454.146	1.229568
454.499	1.226557
454.852	1.223056
455.205	1.219568
455.558	1.216340
455.911	1.213147
456.264	1.209815
456.617	1.206687
456.970	1.203545
457.322	1.200424
457.675	1.197774
458.028	1.194639
458.380	1.191852
458.733	1.188897
459.086	1.186086
459.438	1.182973
459.791	1.179770
460.143	1.176564
460.496	1.173741
460.848	1.170938
461.200	1.167874
461.553	1.164785
461.905	1.161676
462.257	1.158457
462.609	1.155559
462.961	1.152753
463.314	1.149793
463.666	1.147187
464.018	1.144150
464.370	1.141352
464.722	1.138535
465.074	1.135282
465.426	1.132521
465.777	1.129759
466.129	1.126958
466.481	1.124305
466.833	1.121575
467.184	1.118935
467.536	1.116144
467.888	1.113031
468.239	1.109893
468.591	1.106720
468.943	1.103463
469.294	1.100053
469.646	1.096737
469.997	1.093277
470.348	1.089882
470.700	1.086656
471.051	1.083250
471.402	1.080383
471.754	1.077478
472.105	1.074718
472.456	1.072099
472.807	1.069291
473.158	1.066618
473.509	1.064162
473.860	1.061555
474.211	1.059181
474.562	1.056826
474.913	1.054490
475.264	1.051915
475.615	1.049529
475.966	1.047131
476.316	1.044568
476.667	1.041911
477.018	1.039601
477.368	1.037264
477.719	1.034777
478.070	1.032534
478.420	1.030331
478.771	1.027787
479.121	1.025330
479.472	1.022874
479.822	1.020712
480.172	1.018247
480.523	1.015709
480.873	1.012976
481.223	1.009913
481.573	1.006819
481.924	1.003736
482.274	1.000877
482.624	0.998486
482.974	0.996185
483.324	0.994307
483.674	0.992700
484.024	0.991294
484.374	0.989838
484.724	0.988327
485.073	0.986820
485.423	0.985331
485.773	0.983792
486.123	0.982344
486.472	0.980777
486.822	0.979199
487.172	0.977629
487.521	0.976147
487.871	0.974659
488.220	0.973179
488.570	0.971543
488.919	0.969545
489.268	0.967230
489.618	0.964586
489.967	0.961490
490.316	0.958173
490.666	0.954550
491.015	0.951076
491.364	0.947750
491.713	0.944824
492.062	0.942042
492.411	0.939478
492.760	0.936851
493.109	0.934238
493.458	0.931780
493.807	0.929327
494.156	0.926878
494.505	0.924357
494.853	0.921927
495.202	0.919473
495.551	0.916772
495.900	0.914311
496.248	0.911848
496.597	0.909403
496.945	0.907033
497.294	0.904661
497.642	0.902148
497.991	0.899706
498.339	0.897156
498.688	0.894802
499.036	0.892401
499.384	0.890212
499.732	0.887973
500.081	0.885681
500.429	0.883368
500.777	0.881061
501.125	0.878857
501.473	0.876638
501.821	0.874429
502.169	0.872246
502.517	0.870034
502.865	0.868076
503.213	0.865874
503.561	0.863808
503.908	0.861702
504.256	0.859519
504.604	0.857385
504.952	0.855216
505.299	0.853012
505.647	0.850973
505.994	0.848845
506.342	0.846696
506.689	0.844417
507.037	0.842238
507.384	0.839952
507.732	0.837903
508.079	0.835770
508.426	0.833648
508.774	0.831557
509.121	0.829546
509.468	0.827602
509.815	0.825667
510.162	0.823597
510.509	0.821685
510.856	0.819669
511.203	0.817716
511.550	0.815841
511.897	0.813900
512.244	0.812138
512.591	0.810319
512.938	0.808471
513.284	0.806540
513.631	0.804630
513.978	0.802746
514.324	0.800935
514.671	0.799185
515.018	0.797335
515.364	0.795602
515.711	0.793819
516.057	0.792033
516.403	0.790204
516.750	0.788349
517.096	0.786543
517.443	0.784821
517.789	0.783154
518.135	0.781556
518.481	0.779926
518.827	0.778232
519.173	0.776594
519.519	0.774878
519.865	0.773210
520.211	0.771518
520.557	0.769858
520.903	0.768178
521.249	0.766532
521.595	0.764858
521.941	0.763121
522.287	0.761335
522.632	0.759434
522.978	0.757700
523.324	0.755980
523.669	0.754370
524.015	0.752645
524.360	0.750856
524.706	0.749149
525.051	0.747284
525.397	0.745515
525.742	0.743837
526.087	0.742174
526.433	0.740590
526.778	0.739140
527.123	0.737540
527.468	0.735877
527.813	0.734361
528.158	0.732767
528.504	0.731109
528.849	0.729287
529.193	0.727657
529.538	0.725977
529.883	0.724316
530.228	0.722489
530.573	0.720674
530.918	0.718820
531.263	0.717057
531.607	0.715344
531.952	0.713662
532.296	0.712075
532.641	0.710396
532.986	0.708551
533.330	0.706834
533.675	0.705034
534.019	0.703167
534.363	0.701261
534.708	0.699463
535.052	0.697557
535.396	0.695694
535.741	0.693924
536.085	0.692065
536.429	0.690194
536.773	0.688246
537.117	0.686310
537.461	0.684341
537.805	0.682203
538.149	0.679982
538.493	0.677809
538.837	0.675612
539.181	0.673224
539.524	0.670910
539.868	0.668643
540.212	0.666406
540.556	0.664077
540.899	0.661806
541.243	0.659527
541.586	0.657305
541.930	0.654990
542.273	0.652777
542.617	0.650417
542.960	0.647945
543.304	0.645408
543.647	0.642771
543.990	0.640110
544.333	0.637413
544.677	0.634701
545.020	0.632129
545.363	0.629603
545.706	0.626974
546.049	0.624327
546.392	0.621737
546.735	0.619104
547.078	0.616312
547.421	0.613545
547.764	0.610663
548.106	0.607634
548.449	0.604503
548.792	0.601403
549.135	0.598268
549.477	0.595087
549.820	0.592086
550.162	0.589076
550.505	0.586095
550.847	0.582993
551.190	0.579749
551.532	0.576327
551.875	0.572725
552.217	0.569101
552.559	0.565495
552.901	0.561971
553.244	0.558499
553.586	0.555135
553.928	0.551798
554.270	0.548557
554.612	0.545297
554.954	0.542079
555.296	0.538813
555.638	0.535395
555.980	0.531716
556.322	0.527991
556.663	0.523990
557.005	0.519916
557.347	0.515906
557.689	0.511969
558.030	0.508132
558.372	0.504298
558.713	0.500497
559.055	0.496795
559.396	0.493003
559.738	0.489117
560.079	0.485121
560.421	0.481200
560.762	0.477334
561.103	0.473539
561.444	0.469739
561.786	0.466019
562.127	0.462319
562.468	0.458566
562.809	0.454783
563.150	0.450891
563.491	0.446833
563.832	0.442664
564.173	0.438380
564.514	0.433900
564.855	0.429318
565.195	0.424633
565.536	0.419966
565.877	0.415349
566.218	0.410820
566.558	0.406459
566.899	0.402212
567.239	0.398199
567.580	0.394433
567.920	0.390937
568.261	0.387697
568.601	0.384609
568.941	0.381657
569.282	0.378859
569.622	0.376067
569.962	0.373268
570.302	0.370489
570.643	0.367857
570.983	0.365293
571.323	0.362819
571.663	0.360423
572.003	0.358027
572.343	0.355629
572.683	0.353131
573.022	0.350519
573.362	0.347800
573.702	0.345017
574.042	0.342306
574.381	0.339658
574.721	0.337060
575.061	0.334539
575.400	0.332163
575.740	0.329848
576.079	0.327584
576.419	0.325180
576.758	0.322662
577.097	0.320056
577.437	0.317370
577.776	0.314630
578.115	0.311936
578.454	0.309369
578.794	0.307066
579.133	0.305007
579.472	0.303098
579.811	0.301325
580.150	0.299572
580.489	0.297770
580.828	0.295851
581.167	0.293839
581.505	0.291785
581.844	0.289753
582.183	0.287717
582.522	0.285719
582.860	0.283801
583.199	0.281919
583.538	0.280175
583.876	0.278469
584.215	0.276758
584.553	0.275047
584.891	0.273331
585.230	0.271597
585.568	0.269791
585.906	0.267897
586.245	0.265990
586.583	0.264188
586.921	0.262531
587.259	0.261037
587.597	0.259625
587.935	0.258145
588.273	0.256574
588.611	0.254824
588.949	0.252959
589.287	0.251036
589.625	0.249111
589.963	0.247215
590.300	0.245432
590.638	0.243739
590.976	0.242095
591.313	0.240441
591.651	0.238775
591.989	0.237125
592.326	0.235560
592.664	0.234120
593.001	0.232710
593.338	0.231447
593.676	0.230285
594.013	0.229106
594.350	0.227940
594.687	0.226825
595.025	0.225793
595.362	0.224738
595.699	0.223633
596.036	0.222528
596.373	0.221400
596.710	0.220219
597.047	0.219046
597.384	0.217880
597.720	0.216678
598.057	0.215530
598.394	0.214376
598.731	0.213223
599.067	0.212062
599.404	0.210887
599.741	0.209733
600.077	0.208670
600.414	0.207664
600.750	0.206726
601.087	0.205887
601.423	0.205040
601.759	0.204141
602.096	0.203252
602.432	0.202378
602.768	0.201527
603.104	0.200643
603.440	0.199770
603.776	0.198945
604.112	0.198083
604.448	0.197262
604.784	0.196463
605.120	0.195662
605.456	0.194931
605.792	0.194217
606.128	0.193485
606.463	0.192791
606.799	0.192047
607.135	0.191307
607.470	0.190599
607.806	0.189865
608.142	0.189128
608.477	0.188405
608.812	0.187729
609.148	0.187062
609.483	0.186384
609.819	0.185700
610.154	0.184987
610.489	0.184274
610.824	0.183543
611.159	0.182912
611.494	0.182232
611.830	0.181627
612.165	0.181087
612.500	0.180542
612.834	0.180015
613.169	0.179528
613.504	0.178966
613.839	0.178444
614.174	0.177907
614.509	0.177298
614.843	0.176709
615.178	0.176127
615.512	0.175626
615.847	0.175123
616.182	0.174649
616.516	0.174220
616.850	0.173795
617.185	0.173369
617.519	0.172924
617.853	0.172522
618.188	0.171952
618.522	0.171390
618.856	0.170766
619.190	0.170144
619.524	0.169531
619.858	0.168921
620.192	0.168364
620.526	0.167851
620.860	0.167417
621.194	0.166940
621.528	0.166455
621.862	0.166018
622.195	0.165615
622.529	0.165103
622.863	0.164621
623.196	0.164137
623.530	0.163675
623.864	0.163248
624.197	0.162843
624.530	0.162421
624.864	0.161981
625.197	0.161662
625.531	0.161310
625.864	0.160930
626.197	0.160514
626.530	0.160131
626.863	0.159735
627.196	0.159281
627.529	0.158804
627.862	0.158248
628.195	0.157764
628.528	0.157324
628.861	0.156779
629.194	0.156334
629.527	0.155920
629.860	0.155493
630.192	0.155028
630.525	0.154518
630.858	0.154020
631.190	0.153494
631.523	0.152992
631.855	0.152347
632.188	0.151752
632.520	0.151162
632.852	0.150673
633.185	0.150172
633.517	0.149693
633.849	0.149210
634.182	0.148812
634.514	0.148506
634.846	0.148219
635.178	0.147843
635.510	0.147522
635.842	0.147254
636.174	0.146886
636.506	0.146519
636.837	0.146157
637.169	0.145835
637.501	0.145492
637.833	0.145213
638.164	0.144974
638.496	0.144669
638.828	0.144405
639.159	0.144041
639.491	0.143697
639.822	0.143242
640.154	0.142752
640.485	0.142179
640.816	0.141657
641.147	0.141120
641.479	0.140528
641.810	0.139989
642.141	0.139535
642.472	0.138968
642.803	0.138457
643.134	0.137899
643.465	0.137441
643.796	0.137007
644.127	0.136576
644.458	0.136196
644.789	0.135747
645.119	0.135431
645.450	0.135301
645.781	0.135292
646.111	0.135383
646.442	0.135426
646.773	0.135463
647.103	0.135433
647.433	0.135414
647.764	0.135260
648.094	0.135073
648.425	0.135012
648.755	0.134925
649.085	0.134724
649.415	0.134658
649.745	0.134676
650.075	0.134700
650.405	0.134596
650.735	0.132978
651.065	0.123770
651.395	0.115429
651.725	0.102654
652.055	0.070174
652.385	0.051902
652.715	0.040173
653.044	0.032014
653.374	0.026033
653.704	0.021475
654.033	0.029845
654.363	0.035884
654.692	0.039390
655.022	0.041455
655.351	0.042707
655.680	0.043437
656.010	0.043822
656.339	0.043984
656.668	0.044008
656.997	0.043956
657.326	0.043864
657.655	0.043757
657.984	0.043171
658.313	0.040016
658.642	0.036085
658.971	0.041787
659.300	0.049075
659.629	0.058732
659.958	0.072130
660.286	0.091968
660.615	0.124432
660.944	0.128669
661.272	0.126909
661.601	0.125725
661.929	0.125093
662.258	0.124831
662.586	0.124788
662.915	0.124729
663.243	0.124421
663.571	0.123960
663.899	0.123584
664.228	0.123213
664.556	0.122871
664.884	0.122616
665.212	0.122261
665.540	0.122057
665.868	0.121852
666.196	0.121588
666.524	0.121299
666.852	0.121071
667.179	0.120940
667.507	0.120757
667.835	0.120635
668.162	0.120457
668.490	0.120255
668.818	0.120161
669.145	0.120032
669.473	0.120011
669.800	0.119941
670.127	0.119948
670.455	0.120005
670.782	0.120126
671.109	0.120085
671.436	0.120133
671.764	0.120109
672.091	0.120150
672.418	0.120156
672.745	0.120080
673.072	0.120136
673.399	0.120123
673.726	0.119984
674.053	0.119802
674.379	0.119728
674.706	0.119484
675.033	0.119293
675.359	0.119109
675.686	0.118968
676.013	0.118791
676.339	0.118500
676.666	0.118234
676.992	0.117998
677.318	0.117793
677.645	0.117591
677.971	0.117500
678.297	0.117365
678.624	0.117255
678.950	0.117042
679.276	0.116879
679.602	0.116640
679.928	0.116391
680.254	0.116112
680.580	0.115905
680.906	0.115775
681.232	0.115694
681.558	0.115729
681.883	0.115797
682.209	0.115836
682.535	0.115836
682.860	0.115820
683.186	0.115859
683.511	0.115828
683.837	0.115687
684.162	0.115590
684.488	0.115467
684.813	0.115346
685.138	0.115194
685.464	0.115072
685.789	0.114955
686.114	0.114838
686.439	0.114749
686.764	0.114661
687.089	0.114640
687.414	0.114606
687.739	0.114583
688.064	0.114438
688.389	0.114350
688.714	0.114129
689.039	0.113901
689.363	0.113680
689.688	0.113501
690.013	0.113234
690.337	0.113057
690.662	0.112988
690.986	0.112938
691.311	0.112849
691.635	0.112808
691.959	0.112709
692.284	0.112504
692.608	0.112260
692.932	0.112062
693.256	0.112036
693.580	0.111973
693.904	0.111954
694.228	0.111947
694.552	0.111970
694.876	0.111988
695.200	0.111920
695.524	0.111790
695.848	0.111648
696.172	0.111366
696.495	0.111069
696.819	0.110893
697.143	0.110665
697.466	0.110394
697.790	0.110032
698.113	0.109751
698.437	0.109395
698.760	0.109119
699.083	0.109023
699.407	0.109007
699.730	0.108969
700.053	0.108864
700.376	0.108737
700.699	0.108475
701.022	0.108165
701.345	0.107676
701.668	0.107083
701.991	0.106537
702.314	0.105951
702.637	0.105371
702.960	0.104958
703.283	0.104555
703.605	0.104143
703.928	0.103913
704.251	0.103910
704.573	0.103926
704.896	0.103872
705.218	0.103848
705.540	0.103765
705.863	0.103521
706.185	0.103166
706.507	0.102784
706.830	0.102302
707.152	0.101827
707.474	0.101357
707.796	0.100916
708.118	0.100559
708.440	0.100326
708.762	0.100089
709.084	0.099971
709.406	0.099826
709.728	0.099698
710.049	0.099617
710.371	0.099508
710.693	0.099263
711.014	0.098888
711.336	0.098584
711.658	0.098347
711.979	0.098111
712.301	0.097917
712.622	0.097791
712.943	0.097744
713.265	0.097640
713.586	0.097562
713.907	0.097552
714.228	0.097647
714.549	0.097685
714.870	0.097719
715.191	0.097736
715.512	0.097825
715.833	0.097837
716.154	0.097801
716.475	0.097724
716.796	0.097514
717.117	0.097266
717.437	0.097061
717.758	0.096808
718.078	0.096441
718.399	0.096130
718.719	0.095831
719.040	0.095514
719.360	0.095211
719.681	0.094949
720.001	0.094795
720.321	0.094672
720.642	0.094464
720.962	0.094176
721.282	0.094061
721.602	0.093991
721.922	0.093889
722.242	0.093658
722.562	0.093529
722.882	0.093471
723.202	0.093384
723.521	0.093372
723.841	0.093352
724.161	0.093341
724.481	0.093353
724.800	0.093414
725.120	0.093307
725.439	0.093213
725.759	0.093194
726.078	0.093240
726.398	0.093221
726.717	0.093227
727.036	0.093253
727.355	0.093435
727.675	0.093599
727.994	0.093739
728.313	0.093873
728.632	0.094032
728.951	0.094204
729.270	0.094266
729.589	0.094202
729.908	0.094068
730.226	0.093930
730.545	0.093833
730.864	0.093714
731.182	0.093539
731.501	0.093395
731.820	0.093385
732.138	0.093365
732.457	0.093278
732.775	0.093154
733.093	0.093086
733.412	0.093051
733.730	0.092982
734.048	0.092816
734.367	0.092589
734.685	0.092338
735.003	0.091966
735.321	0.091651
735.639	0.091329
735.957	0.091046
736.275	0.090881
736.593	0.090848
736.910	0.090769
737.228	0.090717
737.546	0.090647
737.863	0.090606
738.181	0.090473
738.499	0.090234
738.816	0.090069
739.134	0.089898
739.451	0.089756
739.768	0.089556
740.086	0.089289
740.403	0.089074
740.720	0.088860
741.038	0.088696
741.355	0.088463
741.672	0.088217
741.989	0.087941
742.306	0.087659
742.623	0.087340
742.940	0.087007
743.257	0.086466
743.573	0.086055
743.890	0.085506
744.207	0.084939
744.523	0.084628
744.840	0.084323
745.157	0.084092
745.473	0.083745
745.790	0.083513
746.106	0.083216
746.422	0.083036
746.739	0.082866
747.055	0.082632
747.371	0.082412
747.687	0.082419
748.004	0.082476
748.320	0.082621
748.636	0.082663
748.952	0.082696
749.268	0.082794
749.584	0.082861
749.899	0.082932
750.215	0.082945
750.531	0.082997
750.847	0.083158
751.162	0.083148
751.478	0.083176
751.793	0.083118
752.109	0.083064
752.424	0.083032
752.740	0.083040
753.055	0.083112
753.370	0.083141
753.686	0.083329
754.001	0.083627
754.316	0.083844
754.631	0.084046
754.946	0.084183
755.261	0.084337
755.576	0.084450
755.891	0.084453
756.206	0.084403
756.521	0.084323
756.836	0.084325
757.150	0.084358
757.465	0.084343
757.780	0.084347
758.094	0.084406
758.409	0.084511
758.723	0.084658
759.038	0.084671
759.352	0.084728
759.667	0.084677
759.981	0.084635
760.295	0.084456
760.609	0.084174
760.923	0.083961
761.238	0.083688
761.552	0.083495
761.866	0.083330
762.180	0.083275
762.493	0.083243
762.807	0.083224
763.121	0.083236
763.435	0.083157
763.749	0.082982
764.062	0.082761
764.376	0.082534
764.689	0.082274
765.003	0.082001
765.316	0.081790
765.630	0.081778
765.943	0.081640
766.257	0.081533
766.570	0.081404
766.883	0.081239
767.196	0.081102
767.509	0.080813
767.822	0.080560
768.135	0.080262
768.448	0.079959
768.761	0.079529
769.074	0.079208
769.387	0.078888
769.700	0.078606
770.013	0.078386
770.325	0.078213
770.638	0.078138
770.950	0.078003
771.263	0.077840
771.575	0.077635
771.888	0.077292
772.200	0.076913
772.513	0.076484
772.825	0.076165
773.137	0.075781
773.449	0.075512
773.761	0.075163
774.074	0.074900
774.386	0.074654
774.698	0.074376
775.010	0.073944
775.321	0.073715
775.633	0.073390
775.945	0.073242
776.257	0.073150
776.568	0.072975
776.880	0.072891
777.192	0.072790
777.503	0.072766
777.815	0.072752
778.126	0.072811
778.438	0.072982
778.749	0.073174
779.060	0.073368
779.372	0.073388
779.683	0.073482
779.994	0.073576
780.305	0.073681
780.616	0.073764
780.927	0.073849
781.238	0.073849
781.549	0.074011
781.860	0.074028
782.171	0.074097
782.481	0.074130
782.792	0.074101
783.103	0.074077
783.413	0.074021
783.724	0.073881
784.034	0.073709
784.345	0.073534
784.655	0.073384
784.966	0.073153
785.276	0.072942
785.586	0.072760
785.896	0.072610
786.207	0.072492
786.517	0.072377
786.827	0.072309
787.137	0.072179
787.447	0.072021
787.757	0.072045
788.066	0.071916
788.376	0.071865
788.686	0.071826
788.996	0.071751
789.305	0.071625
789.615	0.071543
789.925	0.071338
790.234	0.071197
790.544	0.071295
790.853	0.071265
791.162	0.071342
791.472	0.071480
791.781	0.071548
792.090	0.071673
792.399	0.071720
792.708	0.071689
793.017	0.071611
793.326	0.071402
793.635	0.071298
793.944	0.071027
794.253	0.070725
794.562	0.070515
794.871	0.070349
795.179	0.070086
795.488	0.069904
795.797	0.069833
796.105	0.069660
796.414	0.069697
796.722	0.069728
797.031	0.069560
797.339	0.069376
797.647	0.069001
797.956	0.068490
798.264	0.067857
798.572	0.067357
798.880	0.066958
799.188	0.066529
799.496	0.066187
799.804	0.065995
800.112	0.065689
800.420	0.065661
800.728	0.065649
801.035	0.065469
801.343	0.065048
801.651	0.064725
801.958	0.064393
802.266	0.064147
802.573	0.064190
802.881	0.064175
803.188	0.064162
803.496	0.064118
803.803	0.064311
804.110	0.064450
804.417	0.064436
804.724	0.064424
805.032	0.064342
805.339	0.064264
805.646	0.064215
805.953	0.063985
806.259	0.063949
806.566	0.063821
806.873	0.063688
807.180	0.063539
807.486	0.063536
807.793	0.063693
808.100	0.063788
808.406	0.063778
808.713	0.063652
809.019	0.063275
809.326	0.062919
809.632	0.062433
809.938	0.061775
810.244	0.061000
810.551	0.060335
810.857	0.059840
811.163	0.059552
811.469	0.059147
811.775	0.058806
812.081	0.058481
812.387	0.058475
812.692	0.058289
812.998	0.058223
813.304	0.058145
813.610	0.058149
813.915	0.058044
814.221	0.057791
814.526	0.057799
814.832	0.057835
815.137	0.057642
815.443	0.057651
815.748	0.057594
816.053	0.057413
816.358	0.057278
816.664	0.057356
816.969	0.057365
817.274	0.057474
817.579	0.057359
817.884	0.057286
818.189	0.057186
818.493	0.057236
818.798	0.057114
819.103	0.057068
819.408	0.056797
819.712	0.056695
820.017	0.056471
820.321	0.056302
820.626	0.056330
820.930	0.055908
821.235	0.055517
821.539	0.055301
821.843	0.055070
822.148	0.054735
822.452	0.054705
822.756	0.054827
823.060	0.054715
823.364	0.054868
823.668	0.054945
823.972	0.054820
824.276	0.054743
824.580	0.054544
824.883	0.054532
825.187	0.054414
825.491	0.054041
825.795	0.054014
826.098	0.053794
826.402	0.053588
826.705	0.053571
827.008	0.053245
827.312	0.053287
827.615	0.053072
827.918	0.052819
828.222	0.052404
828.525	0.052219
828.828	0.052192
829.131	0.052102
829.434	0.051924
829.737	0.051193
830.040	0.050365
830.343	0.049682
830.645	0.049315
830.948	0.049091
831.251	0.048675
831.553	0.048125
831.856	0.048100
832.159	0.047981
832.461	0.048085
832.764	0.047996
833.066	0.047601
833.368	0.047428
833.671	0.047037
833.973	0.046882
834.275	0.046840
834.577	0.046638
834.879	0.046631
835.181	0.046343
835.483	0.045717
835.785	0.045180
836.087	0.044986
836.389	0.045004
836.690	0.044806
836.992	0.043916
837.294	0.042812
837.595	0.041663
837.897	0.040767
838.198	0.039762
838.500	0.038948
838.801	0.037840
839.103	0.036939
839.404	0.036228
839.705	0.035621
840.006	0.035170
840.307	0.034692
840.608	0.034759
840.910	0.034928
841.210	0.034732
841.511	0.034344
841.812	0.034247
842.113	0.034918
842.414	0.034152
842.715	0.033192
843.015	0.032599
843.316	0.032379
843.616	0.032442
843.917	0.031951
844.217	0.032024
844.518	0.031555
844.818	0.030897
845.118	0.030866
845.419	0.031009
845.719	0.031295
846.019	0.030751
846.319	0.030472
846.619	0.029765
846.919	0.029579
847.219	0.029462
847.519	0.029128
847.819	0.029073
848.118	0.028526
848.418	0.027697
848.718	0.027773
849.017	0.027680
849.317	0.027790
849.616	0.027784
849.916	0.028243
850.215	0.029216
850.515	0.029804
850.814	0.030434
851.113	0.031011
851.412	0.031470
851.712	0.031597
852.011	0.031491
852.310	0.032057
852.609	0.032316
852.908	0.032894
853.206	0.033030
853.505	0.033685
853.804	0.033630
854.103	0.033805
854.401	0.034209
854.700	0.034292
854.999	0.034209
855.297	0.034158
855.595	0.034214
855.894	0.034265
856.192	0.034105
856.491	0.033750
856.789	0.033485
857.087	0.032962
857.385	0.032501
857.683	0.031807
857.981	0.031712
858.279	0.031697
858.577	0.030858
858.875	0.030208
859.173	0.029289
859.471	0.028957
859.768	0.027961
860.066	0.027654
860.363	0.026752
860.661	0.026012
860.959	0.025931
861.256	0.026213
861.553	0.026299
861.851	0.025568
862.148	0.024889
862.445	0.024583
862.742	0.023898
863.039	0.023168
863.337	0.023127
863.634	0.022140
863.931	0.021544
864.227	0.020898
864.524	0.019953
864.821	0.020117
865.118	0.020095
865.415	0.019786
865.711	0.019169
866.008	0.018041
866.304	0.017906
866.601	0.017541
866.897	0.016771
867.194	0.015302
867.490	0.014721
867.786	0.014110
868.082	0.014499
868.379	0.014389
868.675	0.014562
868.971	0.014896
869.267	0.015197
869.563	0.015378
869.859	0.015918
870.154	0.015795
870.450	0.015759
870.746	0.015364
871.042	0.015328
871.337	0.015004
871.633	0.014982
871.928	0.014827
872.224	0.014747
872.519	0.013938
872.815	0.014201
873.110	0.014791
873.405	0.015335
873.700	0.015496
873.995	0.015580
874.291	0.015313
874.586	0.015826
874.881	0.015391
875.175	0.015060
875.470	0.014926
875.765	0.014804
876.060	0.014612
876.355	0.015330
876.649	0.015230
876.944	0.015689
877.238	0.015090
877.533	0.015411
877.827	0.016102
878.122	0.016734
878.416	0.017275
878.710	0.018250
879.005	0.017885
879.299	0.017901
879.593	0.017459
879.887	0.016696
880.181	0.016614
880.475	0.016856
880.769	0.016729
881.063	0.016621
881.356	0.016889
881.650	0.016686
881.944	0.016376
882.238	0.018288
882.531	0.008358
882.825	-0.001348
883.118	0.011789
883.412	0.017818
883.705	0.011106
883.998	0.008540
884.291	0.014459
884.585	0.009580
884.878	0.015788
>>>>>>>>>> END of Data <<<<<<<<<<
>>>>>>>>>> Raw Data Start <<<<<<<<
190.664	-407
191.040	7
191.415	7
191.791	1
192.166	4
192.542	10
192.917	6
193.293	8
193.668	8
194.044	10
194.419	-10
194.794	10
195.170	10
195.545	10
195.920	11
196.296	11
196.671	12
197.046	12
197.421	13
197.796	14
198.171	14
198.546	14
198.922	14
199.297	15
199.672	15
200.047	15
200.422	16
200.796	16
201.171	16
201.546	16
201.921	16
202.296	16
202.671	16
203.045	16
203.420	16
203.795	17
204.170	17
204.544	17
204.919	17
205.294	16
205.668	16
206.043	16
206.417	16
206.792	16
207.166	16
207.541	16
207.915	15
208.289	15
208.664	15
209.038	15
209.412	15
209.787	15
210.161	15
210.535	15
210.909	15
211.284	15
211.658	15
212.032	15
212.406	14
212.780	14
213.154	14
213.528	14
213.902	14
214.276	14
214.650	14
215.024	14
215.398	14
215.772	14
216.145	14
216.519	14
216.893	14
217.267	14
217.640	14
218.014	15
218.388	15
218.761	15
219.135	15
219.508	15
219.882	15
220.256	15
220.629	15
221.003	15
221.376	15
221.749	15
222.123	15
222.496	15
222.869	16
223.243	15
223.616	15
223.989	15
224.362	16
224.736	16
225.109	16
225.482	17
225.855	17
226.228	16
226.601	16
226.974	16
227.347	17
227.720	16
228.093	16
228.466	16
228.839	16
229.212	17
229.585	16
229.957	16
230.330	17
230.703	17
231.076	17
231.448	17
231.821	17
232.194	17
232.566	17
232.939	17
233.311	16
233.684	16
234.056	16
234.429	16
234.801	16
235.174	16
235.546	17
235.918	17
236.291	17
236.663	17
237.035	17
237.408	17
237.780	17
238.152	17
238.524	17
238.896	17
239.268	17
239.641	18
240.013	17
240.385	17
240.757	17
241.129	18
241.500	18
241.872	18
242.244	18
242.616	18
242.988	17
243.360	17
243.731	17
244.103	17
244.475	17
244.847	18
245.218	18
245.590	18
245.961	18
246.333	17
246.705	17
247.076	17
247.448	17
247.819	17
248.190	18
248.562	18
248.933	18
249.305	18
249.676	18
250.047	18
250.418	18
250.790	18
251.161	18
251.532	18
251.903	18
252.274	18
252.645	18
253.016	17
253.387	18
253.758	18
254.129	18
254.500	18
254.871	18
255.242	18
255.613	18
255.984	18
256.355	18
256.725	18
257.096	18
257.467	18
257.838	18
258.208	18
258.579	18
258.949	18
259.320	18
259.690	18
260.061	18
260.431	18
260.802	18
261.172	18
261.543	18
261.913	18
262.283	18
262.654	18
263.024	18
263.394	18
263.764	18
264.135	18
264.505	18
264.875	18
265.245	18
265.615	18
265.985	18
266.355	18
266.725	18
267.095	18
267.465	18
267.835	18
268.205	19
268.575	18
268.944	18
269.314	18
269.684	17
270.054	17
270.423	17
270.793	17
271.163	18
271.532	18
271.902	17
272.271	17
272.641	17
273.010	18
273.380	18
273.749	18
274.119	18
274.488	18
274.857	17
275.227	18
275.596	18
275.965	17
276.335	17
276.704	18
277.073	17
277.442	18
277.811	18
278.180	18
278.549	18
278.918	18
279.287	18
279.656	18
280.025	19
280.394	18
280.763	19
281.132	19
281.501	18
281.869	18
282.238	18
282.607	18
282.976	18
283.344	18
283.713	18
284.081	18
284.450	18
284.819	18
285.187	18
285.556	18
285.924	18
286.292	18
286.661	18
287.029	18
287.398	18
287.766	18
288.134	18
288.502	18
288.871	18
289.239	18
289.607	19
289.975	19
290.343	19
290.711	19
291.079	19
291.447	19
291.815	19
292.183	19
292.551	19
292.919	19
293.287	19
293.655	19
294.022	19
294.390	19
294.758	19
295.126	19
295.493	19
295.861	18
296.229	18
296.596	18
296.964	18
297.331	18
297.699	19
298.066	18
298.434	19
298.801	19
299.168	18
299.536	18
299.903	18
300.270	18
300.638	19
301.005	19
301.372	19
301.739	19
302.106	19
302.473	19
302.840	19
303.207	18
303.574	19
303.941	19
304.308	18
304.675	19
305.042	18
305.409	18
305.776	18
306.143	18
306.509	18
306.876	19
307.243	19
307.610	19
307.976	19
308.343	19
308.709	19
309.076	19
309.442	19
309.809	19
310.175	20
310.542	20
310.908	20
311.275	21
311.641	21
312.007	21
312.373	21
312.740	22
313.106	22
313.472	22
313.838	22
314.204	23
314.570	24
314.936	24
315.302	24
315.668	25
316.034	25
316.400	25
316.766	25
317.132	25
317.498	26
317.864	26
318.230	26
318.595	27
318.961	27
319.327	28
319.692	29
320.058	29
320.424	30
320.789	31
321.155	32
321.520	32
321.886	33
322.251	33
322.616	34
322.982	35
323.347	36
323.712	38
324.078	39
324.443	40
324.808	42
325.173	43
325.539	44
325.904	46
326.269	47
326.634	48
326.999	50
327.364	52
327.729	53
328.094	54
328.459	56
328.823	57
329.188	59
329.553	61
329.918	62
330.283	63
330.647	64
331.012	65
331.377	67
331.741	68
332.106	70
332.470	71
332.835	73
333.199	75
333.564	76
333.928	78
334.293	79
334.657	81
335.021	83
335.386	85
335.750	86
336.114	89
336.478	91
336.843	92
337.207	95
337.571	97
337.935	99
338.299	101
338.663	103
339.027	105
339.391	107
339.755	109
340.119	111
340.483	114
340.846	115
341.210	117
341.574	119
341.938	121
342.301	123
342.665	125
343.029	127
343.392	129
343.756	130
344.119	132
344.483	134
344.846	135
345.210	137
345.573	139
345.937	140
346.300	142
346.663	143
347.027	145
347.390	147
347.753	148
348.116	150
348.479	152
348.843	153
349.206	155
349.569	157
349.932	158
350.295	160
350.658	161
351.021	162
351.383	163
351.746	164
352.109	166
352.472	167
352.835	169
353.197	170
353.560	171
353.923	172
354.285	174
354.648	175
355.011	176
355.373	177
355.736	178
356.098	180
356.461	181
356.823	182
357.185	182
357.548	183
357.910	184
358.272	186
358.635	187
358.997	188
359.359	189
359.721	190
360.083	190
360.445	191
360.807	192
361.169	193
361.531	194
361.893	194
362.255	195
362.617	196
362.979	197
363.341	198
363.703	199
364.064	199
364.426	200
364.788	201
365.149	202
365.511	203
365.873	203
366.234	204
366.596	204
366.957	205
367.319	205
367.680	206
368.042	207
368.403	207
368.764	207
369.126	207
369.487	208
369.848	208
370.209	208
370.570	208
370.931	208
371.293	208
371.654	208
372.015	207
372.376	207
372.737	208
373.098	208
373.458	208
373.819	208
374.180	208
374.541	208
374.902	209
375.263	209
375.623	210
375.984	211
376.345	212
376.705	212
377.066	212
377.426	213
377.787	214
378.147	214
378.508	214
378.868	215
379.228	216
379.589	216
379.949	217
380.309	217
380.670	217
381.030	217
381.390	218
381.750	218
382.110	219
382.470	218
382.830	219
383.190	218
383.550	219
383.910	218
384.270	219
384.630	219
384.990	220
385.350	220
385.709	220
386.069	221
386.429	221
386.788	221
387.148	221
387.508	221
387.867	221
388.227	222
388.586	222
388.946	223
389.305	223
389.665	224
390.024	225
390.383	226
390.743	228
391.102	228
391.461	228
391.820	229
392.179	229
392.539	229
392.898	229
393.257	229
393.616	230
393.975	231
394.334	232
394.693	233
395.051	234
395.410	236
395.769	237
396.128	237
396.487	238
396.845	238
397.204	238
397.563	238
397.921	238
398.280	238
398.638	238
398.997	238
399.355	238
399.714	238
400.072	239
400.431	240
400.789	240
401.147	241
401.506	241
401.864	241
402.222	241
402.580	241
402.938	240
403.297	240
403.655	239
404.013	239
404.371	239
404.729	238
405.087	238
405.444	238
405.802	238
406.160	238
406.518	238
406.876	238
407.233	238
407.591	238
407.949	238
408.306	238
408.664	238
409.022	238
409.379	238
409.737	238
410.094	238
410.451	239
410.809	239
411.166	240
411.523	240
411.881	241
412.238	241
412.595	242
412.952	242
413.310	242
413.667	242
414.024	242
414.381	242
414.738	243
415.095	244
415.452	244
415.809	244
416.165	244
416.522	245
416.879	246
417.236	247
417.593	248
417.949	250
418.306	252
418.663	254
419.019	257
419.376	259
419.732	262
420.089	264
420.445	265
420.802	267
421.158	269
421.514	271
421.871	273
422.227	274
422.583	275
422.939	276
423.295	278
423.652	279
424.008	280
424.364	280
424.720	280
425.076	280
425.432	280
425.788	280
426.143	281
426.499	282
426.855	283
427.211	283
427.567	284
427.922	285
428.278	286
428.634	286
428.989	286
429.345	286
429.700	287
430.056	288
430.411	288
430.767	289
431.122	291
431.478	291
431.833	293
432.188	294
432.543	294
432.899	295
433.254	295
433.609	295
433.964	295
434.319	294
434.674	294
435.029	294
435.384	295
435.739	296
436.094	298
436.449	300
436.804	302
437.158	304
437.513	307
437.868	310
438.223	313
438.577	317
438.932	321
439.287	324
439.641	328
439.996	332
440.350	336
440.704	340
441.059	344
441.413	348
441.768	352
442.122	356
442.476	359
442.830	363
443.185	366
443.539	370
443.893	373
444.247	376
444.601	379
444.955	381
445.309	382
445.663	383
446.017	384
446.371	385
446.724	386
447.078	387
447.432	387
447.786	387
448.139	387
448.493	387
448.847	386
449.200	386
449.554	386
449.907	386
450.261	385
450.614	385
450.968	385
451.321	385
451.674	385
452.027	385
452.381	386
452.734	387
453.087	387
453.440	388
453.793	390
454.146	392
454.499	394
454.852	398
455.205	402
455.558	405
455.911	409
456.264	414
456.617	417
456.970	421
457.322	425
457.675	428
458.028	431
458.380	434
458.733	436
459.086	438
459.438	442
459.791	446
460.143	450
460.496	455
460.848	460
461.200	465
461.553	472
461.905	478
462.257	483
462.609	488
462.961	492
463.314	497
463.666	500
464.018	503
464.370	507
464.722	510
465.074	515
465.426	518
465.777	522
466.129	525
466.481	527
466.833	529
467.184	530
467.536	530
467.888	530
468.239	530
468.591	530
468.943	530
469.294	531
469.646	533
469.997	535
470.348	539
470.700	544
471.051	550
471.402	556
471.754	564
472.105	572
472.456	581
472.807	591
473.158	601
473.509	613
473.860	626
474.211	638
474.562	651
474.913	665
475.264	680
475.615	694
475.966	709
476.316	724
476.667	738
477.018	753
477.368	768
477.719	783
478.070	797
478.420	811
478.771	825
479.121	839
479.472	852
479.822	866
480.172	882
480.523	899
480.873	924
481.223	963
481.573	1022
481.924	1095
482.274	1177
482.624	1263
482.974	1350
483.324	1426
483.674	1484
484.024	1524
484.374	1550
484.724	1568
485.073	1581
485.423	1592
485.773	1602
486.123	1612
486.472	1622
486.822	1632
487.172	1640
487.521	1646
487.871	1650
488.220	1646
488.570	1626
488.919	1588
489.268	1535
489.618	1472
489.967	1405
490.316	1336
490.666	1277
491.015	1236
491.364	1212
491.713	1200
492.062	1198
492.411	1200
492.760	1205
493.109	1211
493.458	1217
493.807	1222
494.156	1226
494.505	1231
494.853	1236
495.202	1242
495.551	1250
495.900	1258
496.248	1267
496.597	1275
496.945	1283
497.294	1291
497.642	1300
497.991	1310
498.339	1321
498.688	1333
499.036	1345
499.384	1356
499.732	1365
500.081	1373
500.429	1381
500.777	1388
501.125	1394
501.473	1401
501.821	1408
502.169	1415
502.517	1421
502.865	1425
503.213	1428
503.561	1430
503.908	1433
504.256	1434
504.604	1435
504.952	1435
505.299	1435
505.647	1433
505.994	1430
506.342	1427
506.689	1424
507.037	1422
507.384	1421
507.732	1420
508.079	1420
508.426	1420
508.774	1421
509.121	1420
509.468	1419
509.815	1417
510.162	1416
510.509	1415
510.856	1414
511.203	1412
511.550	1410
511.897	1408
512.244	1406
512.591	1404
512.938	1403
513.284	1401
513.631	1399
513.978	1397
514.324	1394
514.671	1391
515.018	1387
515.364	1384
515.711	1382
516.057	1379
516.403	1376
516.750	1374
517.096	1370
517.443	1366
517.789	1361
518.135	1357
518.481	1353
518.827	1350
519.173	1346
519.519	1343
519.865	1340
520.211	1338
520.557	1335
520.903	1333
521.249	1332
521.595	1330
521.941	1329
522.287	1328
522.632	1326
522.978	1325
523.324	1325
523.669	1324
524.015	1326
524.360	1329
524.706	1334
525.051	1340
525.397	1347
525.742	1355
526.087	1363
526.433	1371
526.778	1377
527.123	1383
527.468	1387
527.813	1391
528.158	1396
528.504	1401
528.849	1409
529.193	1419
529.538	1430
529.883	1444
530.228	1461
530.573	1479
530.918	1498
531.263	1518
531.607	1535
531.952	1551
532.296	1564
532.641	1575
532.986	1584
533.330	1592
533.675	1601
534.019	1612
534.363	1627
534.708	1644
535.052	1664
535.396	1686
535.741	1706
536.085	1724
536.429	1740
536.773	1755
537.117	1766
537.461	1775
537.805	1785
538.149	1795
538.493	1805
538.837	1817
539.181	1831
539.524	1848
539.868	1868
540.212	1890
540.556	1913
540.899	1937
541.243	1959
541.586	1978
541.930	1993
542.273	2004
542.617	2012
542.960	2022
543.304	2034
543.647	2050
543.990	2071
544.333	2094
544.677	2118
545.020	2141
545.363	2159
545.706	2175
546.049	2187
546.392	2194
546.735	2198
547.078	2200
547.421	2203
547.764	2208
548.106	2213
548.449	2222
548.792	2235
549.135	2252
549.477	2272
549.820	2292
550.162	2310
550.505	2324
550.847	2335
551.190	2344
551.532	2351
551.875	2359
552.217	2368
552.559	2380
552.901	2395
553.244	2412
553.586	2431
553.928	2451
554.270	2469
554.612	2485
554.954	2498
555.296	2509
555.638	2521
555.980	2534
556.322	2548
556.663	2569
557.005	2595
557.347	2628
557.689	2663
558.030	2697
558.372	2729
558.713	2759
559.055	2787
559.396	2815
559.738	2844
560.079	2877
560.421	2913
560.762	2954
561.103	2999
561.444	3048
561.786	3099
562.127	3154
562.468	3213
562.809	3277
563.150	3347
563.491	3425
563.832	3510
564.173	3606
564.514	3717
564.855	3850
565.195	4011
565.536	4204
565.877	4427
566.218	4680
566.558	4966
566.899	5280
567.239	5619
567.580	5975
567.920	6342
568.261	6712
568.601	7092
568.941	7486
569.282	7891
569.622	8312
569.962	8752
570.302	9222
570.643	9707
570.983	10198
571.323	10674
571.663	11134
572.003	11574
572.343	11987
572.683	12377
573.022	12775
573.362	13196
573.702	13632
574.042	14069
574.381	14489
574.721	14891
575.061	15279
575.400	15633
575.740	15949
576.079	16232
576.419	16515
576.758	16836
577.097	17212
577.437	17623
577.776	18062
578.115	18520
578.454	18984
578.794	19410
579.133	19744
579.472	19980
579.811	20125
580.150	20185
580.489	20181
580.828	20149
581.167	20122
581.505	20113
581.844	20111
582.183	20109
582.522	20121
582.860	20143
583.199	20166
583.538	20159
583.876	20088
584.215	19934
584.553	19685
584.891	19350
585.230	18932
585.568	18468
585.906	17996
586.245	17572
586.583	17207
586.921	16906
587.259	16632
587.597	16356
587.935	16069
588.273	15774
588.611	15501
588.949	15261
589.287	15063
589.625	14910
589.963	14794
590.300	14702
590.638	14619
590.976	14523
591.313	14408
591.651	14299
591.989	14205
592.326	14132
592.664	14069
593.001	14020
593.338	13993
593.676	13984
594.013	14002
594.350	14064
594.687	14162
595.025	14270
595.362	14369
595.699	14442
596.036	14492
596.373	14511
596.710	14493
597.047	14449
597.384	14393
597.720	14329
598.057	14279
598.394	14244
598.731	14229
599.067	14238
599.404	14272
599.741	14339
600.077	14429
600.414	14529
600.750	14634
601.087	14714
601.423	14755
601.759	14765
602.096	14746
602.432	14710
602.768	14650
603.104	14566
603.440	14460
603.776	14345
604.112	14222
604.448	14097
604.784	13964
605.120	13821
605.456	13682
605.792	13536
606.128	13382
606.463	13224
606.799	13064
607.135	12919
607.470	12775
607.806	12632
608.142	12492
608.477	12359
608.812	12229
609.148	12099
609.483	11962
609.819	11822
610.154	11688
610.489	11565
610.824	11458
611.159	11368
611.494	11276
611.830	11196
612.165	11118
612.500	11029
612.834	10926
613.169	10807
613.504	10677
613.839	10531
614.174	10365
614.509	10199
614.843	10034
615.178	9877
615.512	9721
615.847	9567
616.182	9415
616.516	9260
616.850	9096
617.185	8926
617.519	8754
617.853	8567
618.188	8376
618.522	8200
618.856	8051
619.190	7922
619.524	7808
619.858	7719
620.192	7648
620.526	7585
620.860	7523
621.194	7464
621.528	7405
621.862	7346
622.195	7274
622.529	7199
622.863	7120
623.196	7041
623.530	6961
623.864	6880
624.197	6799
624.530	6720
624.864	6649
625.197	6574
625.531	6490
625.864	6388
626.197	6280
626.530	6162
626.863	6029
627.196	5885
627.529	5740
627.862	5597
628.195	5455
628.528	5313
628.861	5179
629.194	5057
629.527	4942
629.860	4828
630.192	4715
630.525	4610
630.858	4512
631.190	4419
631.523	4330
631.855	4246
632.188	4174
632.520	4106
632.852	4042
633.185	3976
633.517	3912
633.849	3855
634.182	3803
634.514	3752
634.846	3707
635.178	3668
635.510	3633
635.842	3600
636.174	3570
636.506	3539
636.837	3508
637.169	3478
637.501	3446
637.833	3411
638.164	3371
638.496	3327
638.828	3276
639.159	3220
639.491	3159
639.822	3096
640.154	3032
640.485	2970
640.816	2908
641.147	2846
641.479	2787
641.810	2729
642.141	2673
642.472	2619
642.803	2564
643.134	2513
643.465	2469
643.796	2433
644.127	2408
644.458	2395
644.789	2396
645.119	2410
645.450	2432
645.781	2458
646.111	2482
646.442	2504
646.773	2522
647.103	2535
647.433	2546
647.764	2559
648.094	2576
648.425	2597
648.755	2622
649.085	2652
649.415	2682
649.745	2714
650.075	2746
650.405	2783
650.735	2864
651.065	3443
651.395	5239
651.725	8196
652.055	11840
652.385	15480
652.715	19119
653.044	22759
653.374	26405
653.704	30056
654.033	32798
654.363	34604
654.692	35801
655.022	36582
655.351	37094
655.680	37413
656.010	37587
656.339	37665
656.668	37687
656.997	37679
657.326	37648
657.655	37560
657.984	36963
658.313	35139
658.642	32144
658.971	28452
659.300	24761
659.629	21069
659.958	17378
660.286	13688
660.615	9999
660.944	7228
661.272	5396
661.601	4173
661.929	3365
662.258	2820
662.586	2463
662.915	2245
663.243	2119
663.571	2048
663.899	2005
664.228	1978
664.556	1960
664.884	1948
665.212	1939
665.540	1933
665.868	1930
666.196	1929
666.524	1929
666.852	1931
667.179	1938
667.507	1953
667.835	1975
668.162	2004
668.490	2040
668.818	2083
669.145	2128
669.473	2172
669.800	2213
670.127	2250
670.455	2280
670.782	2304
671.109	2327
671.436	2345
671.764	2361
672.091	2373
672.418	2384
672.745	2393
673.072	2402
673.399	2412
673.726	2424
674.053	2433
674.379	2436
674.706	2436
675.033	2435
675.359	2432
675.686	2426
676.013	2424
676.339	2426
676.666	2434
676.992	2452
677.318	2477
677.645	2507
677.971	2533
678.297	2558
678.624	2582
678.950	2604
679.276	2626
679.602	2647
679.928	2668
680.254	2695
680.580	2729
680.906	2772
681.232	2825
681.558	2880
681.883	2935
682.209	2986
682.535	3033
682.860	3077
683.186	3113
683.511	3141
683.837	3159
684.162	3174
684.488	3185
684.813	3197
685.138	3209
685.464	3218
685.789	3226
686.114	3234
686.439	3245
686.764	3257
687.089	3265
687.414	3266
687.739	3256
688.064	3237
688.389	3212
688.714	3183
689.039	3151
689.363	3118
689.688	3081
690.013	3045
690.337	3014
690.662	2988
690.986	2964
691.311	2940
691.635	2915
691.959	2893
692.284	2878
692.608	2874
692.932	2880
693.256	2889
693.580	2902
693.904	2917
694.228	2936
694.552	2952
694.876	2960
695.200	2957
695.524	2945
695.848	2926
696.172	2903
696.495	2878
696.819	2852
697.143	2825
697.466	2797
697.790	2774
698.113	2758
698.437	2751
698.760	2750
699.083	2748
699.407	2740
699.730	2725
700.053	2703
700.376	2672
700.699	2629
701.022	2574
701.345	2516
701.668	2461
701.991	2415
702.314	2383
702.637	2368
702.960	2372
703.283	2397
703.605	2440
703.928	2499
704.251	2565
704.573	2631
704.896	2691
705.218	2739
705.540	2778
705.863	2809
706.185	2834
706.507	2856
706.830	2877
707.152	2898
707.474	2922
707.796	2948
708.118	2975
708.440	3002
708.762	3025
709.084	3044
709.406	3054
709.728	3056
710.049	3049
710.371	3036
710.693	3015
711.014	2993
711.336	2971
711.658	2952
711.979	2934
712.301	2918
712.622	2901
712.943	2880
713.265	2855
713.586	2829
713.907	2805
714.228	2782
714.549	2765
714.870	2753
715.191	2747
715.512	2745
715.833	2741
716.154	2733
716.475	2721
716.796	2704
717.117	2678
717.437	2648
717.758	2614
718.078	2580
718.399	2545
718.719	2515
719.040	2489
719.360	2469
719.681	2455
720.001	2445
720.321	2440
720.642	2437
720.962	2439
721.282	2445
721.602	2452
721.922	2461
722.242	2473
722.562	2488
722.882	2507
723.202	2524
723.521	2540
723.841	2557
724.161	2574
724.481	2591
724.800	2608
725.120	2631
725.439	2658
725.759	2689
726.078	2724
726.398	2767
726.717	2821
727.036	2881
727.355	2943
727.675	3005
727.994	3064
728.313	3121
728.632	3169
728.951	3208
729.270	3243
729.589	3275
729.908	3315
730.226	3360
730.545	3409
730.864	3463
731.182	3521
731.501	3581
731.820	3637
732.138	3685
732.457	3728
732.775	3767
733.093	3799
733.412	3817
733.730	3821
734.048	3813
734.367	3796
734.685	3772
735.003	3746
735.321	3722
735.639	3703
735.957	3689
736.275	3675
736.593	3654
736.910	3623
737.228	3579
737.546	3524
737.863	3458
738.181	3386
738.499	3311
738.816	3237
739.134	3164
739.451	3089
739.768	3015
740.086	2944
740.403	2878
740.720	2816
741.038	2758
741.355	2702
741.672	2646
741.989	2590
742.306	2531
742.623	2471
742.940	2412
743.257	2357
743.573	2309
743.890	2271
744.207	2242
744.523	2221
744.840	2208
745.157	2199
745.473	2198
745.790	2205
746.106	2222
746.422	2248
746.739	2279
747.055	2318
747.371	2362
747.687	2408
748.004	2451
748.320	2489
748.636	2523
748.952	2557
749.268	2591
749.584	2623
749.899	2653
750.215	2684
750.531	2718
750.847	2756
751.162	2795
751.478	2833
751.793	2872
752.109	2914
752.424	2959
752.740	3004
753.055	3056
753.370	3118
753.686	3190
754.001	3268
754.316	3350
754.631	3436
754.946	3528
755.261	3625
755.576	3719
755.891	3809
756.206	3899
756.521	3994
756.836	4090
757.150	4182
757.465	4264
757.780	4334
758.094	4392
758.409	4437
758.723	4465
759.038	4478
759.352	4478
759.667	4465
759.981	4442
760.295	4420
760.609	4403
760.923	4392
761.238	4386
761.552	4381
761.866	4375
762.180	4365
762.493	4341
762.807	4295
763.121	4225
763.435	4138
763.749	4042
764.062	3952
764.376	3877
764.689	3825
765.003	3798
765.316	3794
765.630	3806
765.943	3828
766.257	3853
766.570	3875
766.883	3881
767.196	3871
767.509	3846
767.822	3809
768.135	3761
768.448	3710
768.761	3657
769.074	3610
769.387	3574
769.700	3552
770.013	3539
770.325	3528
770.638	3512
770.950	3482
771.263	3436
771.575	3371
771.888	3288
772.200	3192
772.513	3088
772.825	2977
773.137	2865
773.449	2754
773.761	2647
774.074	2547
774.386	2458
774.698	2384
775.010	2323
775.321	2279
775.633	2251
775.945	2234
776.257	2225
776.568	2222
776.880	2229
777.192	2245
777.503	2269
777.815	2300
778.126	2338
778.438	2385
778.749	2436
779.060	2485
779.372	2532
779.683	2577
779.994	2617
780.305	2649
780.616	2671
780.927	2685
781.238	2689
781.549	2683
781.860	2666
782.171	2641
782.481	2614
782.792	2587
783.103	2559
783.413	2530
783.724	2499
784.034	2469
784.345	2442
784.655	2417
784.966	2391
785.276	2364
785.586	2338
785.896	2311
786.207	2284
786.517	2255
786.827	2226
787.137	2199
787.447	2172
787.757	2147
788.066	2123
788.376	2100
788.686	2077
788.996	2054
789.305	2031
789.615	2012
789.925	2002
790.234	2000
790.544	2005
790.853	2015
791.162	2025
791.472	2034
791.781	2038
792.090	2034
792.399	2021
792.708	2002
793.017	1980
793.326	1960
793.635	1941
793.944	1923
794.253	1908
794.562	1897
794.871	1890
795.179	1886
795.488	1880
795.797	1870
796.105	1853
796.414	1825
796.722	1787
797.031	1739
797.339	1682
797.647	1617
797.956	1550
798.264	1487
798.572	1436
798.880	1395
799.188	1366
799.496	1344
799.804	1328
800.112	1316
800.420	1305
800.728	1295
801.035	1281
801.343	1266
801.651	1254
801.958	1251
802.266	1256
802.573	1267
802.881	1280
803.188	1297
803.496	1316
803.803	1335
804.110	1352
804.417	1368
804.724	1381
805.032	1394
805.339	1405
805.646	1412
805.953	1416
806.259	1417
806.566	1415
806.873	1409
807.180	1403
807.486	1395
807.793	1386
808.100	1372
808.406	1349
808.713	1318
809.019	1283
809.326	1247
809.632	1212
809.938	1180
810.244	1151
810.551	1127
810.857	1106
811.163	1088
811.469	1069
811.775	1049
812.081	1028
812.387	1008
812.692	993
812.998	981
813.304	972
813.610	964
813.915	958
814.221	953
814.526	949
814.832	945
815.137	941
815.443	935
815.748	926
816.053	914
816.358	901
816.664	890
816.969	879
817.274	870
817.579	862
817.884	858
818.189	857
818.493	856
818.798	854
819.103	848
819.408	840
819.712	830
820.017	819
820.321	808
820.626	796
820.930	787
821.235	780
821.539	777
821.843	777
822.148	779
822.452	781
822.756	780
823.060	777
823.364	773
823.668	766
823.972	758
824.276	750
824.580	744
824.883	740
825.187	739
825.491	740
825.795	740
826.098	741
826.402	740
826.705	737
827.008	732
827.312	725
827.615	713
827.918	698
828.222	681
828.525	664
828.828	648
829.131	632
829.434	616
829.737	601
830.040	589
830.343	580
830.645	571
830.948	562
831.251	553
831.553	546
831.856	540
832.159	534
832.461	527
832.764	519
833.066	512
833.368	506
833.671	502
833.973	499
834.275	495
834.577	492
834.879	488
835.181	483
835.483	477
835.785	471
836.087	463
836.389	453
836.690	441
836.992	429
837.294	417
837.595	404
837.897	390
838.198	376
838.500	363
838.801	351
839.103	341
839.404	333
839.705	325
840.006	319
840.307	315
840.608	311
840.910	308
841.210	306
841.511	304
841.812	302
842.113	298
842.414	294
842.715	289
843.015	283
843.316	276
843.616	270
843.917	265
844.217	260
844.518	257
844.818	254
845.118	252
845.419	251
845.719	249
846.019	248
846.319	247
846.619	246
846.919	245
847.219	244
847.519	242
847.819	241
848.118	241
848.418	244
848.718	251
849.017	263
849.317	281
849.616	302
849.916	326
850.215	352
850.515	381
850.814	409
851.113	434
851.412	457
851.712	478
852.011	498
852.310	516
852.609	532
852.908	546
853.206	559
853.505	570
853.804	580
854.103	589
854.401	595
854.700	598
854.999	596
855.297	588
855.595	576
855.894	559
856.192	539
856.491	516
856.789	490
857.087	464
857.385	440
857.683	418
857.981	398
858.279	379
858.577	362
858.875	346
859.173	334
859.471	324
859.768	316
860.066	309
860.363	303
860.661	298
860.959	294
861.256	290
861.553	285
861.851	280
862.148	274
862.445	269
862.742	264
863.039	259
863.337	256
863.634	253
863.931	251
864.227	250
864.524	250
864.821	250
865.118	249
865.415	247
865.711	243
866.008	239
866.304	235
866.601	230
866.897	226
867.194	224
867.490	221
867.786	220
868.082	220
868.379	221
868.675	221
868.971	221
869.267	221
869.563	221
869.859	221
870.154	220
870.450	218
870.746	217
871.042	216
871.337	216
871.633	217
871.928	218
872.224	219
872.519	221
872.815	223
873.110	223
873.405	222
873.700	222
873.995	221
874.291	221
874.586	222
874.881	223
875.175	226
875.470	229
875.765	233
876.060	238
876.355	242
876.649	247
876.944	251
877.238	256
877.533	260
877.827	262
878.122	264
878.416	265
878.710	265
879.005	264
879.299	263
879.593	262
879.887	262
880.181	260
880.475	259
880.769	256
881.063	254
881.356	251
881.650	248
881.944	244
882.238	199
882.531	196
882.825	197
883.118	194
883.412	194
883.705	194
883.998	202
884.291	205
884.585	208
884.878	214
>>>>>>>>>> END of Data <<<<<<<<<<