Date	2021年06月15日火曜日 04時57分18秒
Spectrometers	USB2+H05879
ダーク	使用
リファレンス	使用
積分時間[msec]	10
平均回数	280
ｽﾑｰｼﾞﾝｸﾞ	10
Electrical Dark	USE
ピクセル数	2048
計測モード	吸光度
保存開始波長[nm]	190.664
保存終了波長[nm]	884.878
保存ﾋﾟｯﾁ波長[nm]	全波長

>>>>>>>>>> Data Start <<<<<<<<<<<<
190.664	0.000000
191.040	0.000000
191.415	0.000000
191.791	-2.571688
192.166	-0.375062
192.542	-0.990720
192.917	0.000000
193.293	-0.672970
193.668	-0.376552
194.044	-0.887012
194.419	0.000000
194.794	-1.404323
195.170	-1.321623
195.545	-1.237301
195.920	-1.108977
196.296	-0.995911
196.671	-0.827541
197.046	-0.680725
197.421	-0.616630
197.796	-0.612075
198.171	-0.583119
198.546	-0.533546
198.922	-0.488773
199.297	-0.458293
199.672	-0.432256
200.047	-0.411555
200.422	-0.383125
200.796	-0.375809
201.171	-0.359421
201.546	-0.355638
201.921	-0.344649
202.296	-0.325447
202.671	-0.293140
203.045	-0.270971
203.420	-0.255019
203.795	-0.237513
204.170	-0.229976
204.544	-0.230992
204.919	-0.228799
205.294	-0.225621
205.668	-0.206216
206.043	-0.189825
206.417	-0.190916
206.792	-0.180697
207.166	-0.178586
207.541	-0.171599
207.915	-0.169808
208.289	-0.160430
208.664	-0.155721
209.038	-0.150867
209.412	-0.128365
209.787	-0.110708
210.161	-0.105511
210.535	-0.112106
210.909	-0.097877
211.284	-0.091401
211.658	-0.091338
212.032	-0.091702
212.406	-0.086305
212.780	-0.086218
213.154	-0.086437
213.528	-0.091949
213.902	-0.088644
214.276	-0.081778
214.650	-0.084723
215.024	-0.076879
215.398	-0.076722
215.772	-0.069078
216.145	-0.059554
216.519	-0.052021
216.893	-0.049575
217.267	-0.068090
217.640	-0.073077
218.014	-0.065020
218.388	-0.052873
218.761	-0.065580
219.135	-0.053675
219.508	-0.054905
219.882	-0.060518
220.256	-0.059499
220.629	-0.042403
221.003	-0.042695
221.376	-0.042900
221.749	-0.048382
222.123	-0.053231
222.496	-0.057084
222.869	-0.056955
223.243	-0.052802
223.616	-0.049753
223.989	-0.054891
224.362	-0.058406
224.736	-0.065522
225.109	-0.055978
225.482	-0.054146
225.855	-0.055305
226.228	-0.058055
226.601	-0.049450
226.974	-0.048745
227.347	-0.032506
227.720	-0.028577
228.093	-0.032433
228.466	-0.044169
228.839	-0.048053
229.212	-0.049629
229.585	-0.060270
229.957	-0.052845
230.330	-0.041216
230.703	-0.034492
231.076	-0.038537
231.448	-0.047061
231.821	-0.049290
232.194	-0.041669
232.566	-0.042387
232.939	-0.047251
233.311	-0.052073
233.684	-0.048421
234.056	-0.043089
234.429	-0.041591
234.801	-0.044592
235.174	-0.055828
235.546	-0.048408
235.918	-0.051209
236.291	-0.051789
236.663	-0.047018
237.035	-0.049283
237.408	-0.033962
237.780	-0.031097
238.152	-0.035831
238.524	-0.049329
238.896	-0.051795
239.268	-0.045360
239.641	-0.048971
240.013	-0.042373
240.385	-0.030503
240.757	-0.022516
241.129	-0.019898
241.500	-0.023109
241.872	-0.020144
242.244	-0.025370
242.616	-0.026491
242.988	-0.019751
243.360	-0.016347
243.731	-0.003302
244.103	0.004499
244.475	0.004832
244.847	0.013348
245.218	0.015045
245.590	0.005490
245.961	0.007597
246.333	0.015819
246.705	0.014208
247.076	0.020272
247.448	0.025357
247.819	0.019151
248.190	0.022741
248.562	0.016508
248.933	0.016159
249.305	0.019251
249.676	0.014657
250.047	0.008145
250.418	0.006229
250.790	0.003224
251.161	-0.002086
251.532	-0.006267
251.903	-0.008285
252.274	0.001434
252.645	0.005923
253.016	-0.000787
253.387	-0.007444
253.758	-0.009941
254.129	-0.007717
254.500	0.004904
254.871	-0.003674
255.242	-0.003924
255.613	-0.004725
255.984	-0.011270
256.355	-0.007962
256.725	-0.004423
257.096	-0.001276
257.467	0.003061
257.838	0.015671
258.208	0.017207
258.579	0.018139
258.949	0.020443
259.320	0.024642
259.690	0.023616
260.061	0.023149
260.431	0.026692
260.802	0.031657
261.172	0.048516
261.543	0.052878
261.913	0.050332
262.283	0.039113
262.654	0.039129
263.024	0.037045
263.394	0.038318
263.764	0.040995
264.135	0.039003
264.505	0.042230
264.875	0.037523
265.245	0.041727
265.615	0.042692
265.985	0.042441
266.355	0.042613
266.725	0.040365
267.095	0.038192
267.465	0.041656
267.835	0.038092
268.205	0.030597
268.575	0.032382
268.944	0.032254
269.314	0.031151
269.684	0.032838
270.054	0.030598
270.423	0.035526
270.793	0.039605
271.163	0.046090
271.532	0.050399
271.902	0.057862
272.271	0.054493
272.641	0.062494
273.010	0.052705
273.380	0.050338
273.749	0.053959
274.119	0.059510
274.488	0.064575
274.857	0.068911
275.227	0.069938
275.596	0.067669
275.965	0.073690
276.335	0.071667
276.704	0.074459
277.073	0.078655
277.442	0.084933
277.811	0.097757
278.180	0.100336
278.549	0.101137
278.918	0.098036
279.287	0.098904
279.656	0.099767
280.025	0.101456
280.394	0.094504
280.763	0.105202
281.132	0.111128
281.501	0.109342
281.869	0.107866
282.238	0.105460
282.607	0.103104
282.976	0.100250
283.344	0.103572
283.713	0.100362
284.081	0.109082
284.450	0.103910
284.819	0.103864
285.187	0.101331
285.556	0.098033
285.924	0.095426
286.292	0.095634
286.661	0.092736
287.029	0.090707
287.398	0.090112
287.766	0.088418
288.134	0.091610
288.502	0.086215
288.871	0.087950
289.239	0.096027
289.607	0.097073
289.975	0.103971
290.343	0.105316
290.711	0.105814
291.079	0.103616
291.447	0.113753
291.815	0.113025
292.183	0.117430
292.551	0.117580
292.919	0.119439
293.287	0.123019
293.655	0.132967
294.022	0.135246
294.390	0.138006
294.758	0.138812
295.126	0.138942
295.493	0.144400
295.861	0.151075
296.229	0.148261
296.596	0.152947
296.964	0.148179
297.331	0.140887
297.699	0.138523
298.066	0.143755
298.434	0.147892
298.801	0.151265
299.168	0.143344
299.536	0.149497
299.903	0.147299
300.270	0.153068
300.638	0.158244
301.005	0.160714
301.372	0.157346
301.739	0.165056
302.106	0.172294
302.473	0.177969
302.840	0.184714
303.207	0.203024
303.574	0.214706
303.941	0.235996
304.308	0.244138
304.675	0.257054
305.042	0.281963
305.409	0.301239
305.776	0.316193
306.143	0.341174
306.509	0.370180
306.876	0.401663
307.243	0.426552
307.610	0.454767
307.976	0.477944
308.343	0.508010
308.709	0.535226
309.076	0.568514
309.442	0.593073
309.809	0.623094
310.175	0.661021
310.542	0.690884
310.908	0.714190
311.275	0.741043
311.641	0.772736
312.007	0.800726
312.373	0.832774
312.740	0.854850
313.106	0.884622
313.472	0.917326
313.838	0.948632
314.204	0.969383
314.570	0.982671
314.936	1.002838
315.302	1.027972
315.668	1.050502
316.034	1.074715
316.400	1.107558
316.766	1.129778
317.132	1.160848
317.498	1.181253
317.864	1.192330
318.230	1.211344
318.595	1.228212
318.961	1.241822
319.327	1.250872
319.692	1.266513
320.058	1.277480
320.424	1.297805
320.789	1.312109
321.155	1.326927
321.520	1.336221
321.886	1.356581
322.251	1.372986
322.616	1.384690
322.982	1.400109
323.347	1.412541
323.712	1.425667
324.078	1.430538
324.443	1.437318
324.808	1.440129
325.173	1.453057
325.539	1.465691
325.904	1.472176
326.269	1.480434
326.634	1.489018
326.999	1.495646
327.364	1.502060
327.729	1.512069
328.094	1.515917
328.459	1.519178
328.823	1.523113
329.188	1.531401
329.553	1.531101
329.918	1.538825
330.283	1.543006
330.647	1.547289
331.012	1.550370
331.377	1.552774
331.741	1.553694
332.106	1.559141
332.470	1.562654
332.835	1.564237
333.199	1.565487
333.564	1.569619
333.928	1.570199
334.293	1.572821
334.657	1.574293
335.021	1.578234
335.386	1.578778
335.750	1.577793
336.114	1.580333
336.478	1.582262
336.843	1.580086
337.207	1.580613
337.571	1.582575
337.935	1.582945
338.299	1.581881
338.663	1.580934
339.027	1.580287
339.391	1.582713
339.755	1.582239
340.119	1.582272
340.483	1.581864
340.846	1.583655
341.210	1.584656
341.574	1.585341
341.938	1.584684
342.301	1.586774
342.665	1.586395
343.029	1.586794
343.392	1.589475
343.756	1.587659
344.119	1.586583
344.483	1.589034
344.846	1.590358
345.210	1.589595
345.573	1.588469
345.937	1.589995
346.300	1.592679
346.663	1.593475
347.027	1.593960
347.390	1.594373
347.753	1.594943
348.116	1.595928
348.479	1.594942
348.843	1.593628
349.206	1.593535
349.569	1.593288
349.932	1.593763
350.295	1.593714
350.658	1.594238
351.021	1.595229
351.383	1.596824
351.746	1.596549
352.109	1.596239
352.472	1.597006
352.835	1.596968
353.197	1.599727
353.560	1.600476
353.923	1.598722
354.285	1.598912
354.648	1.599161
355.011	1.598923
355.373	1.600481
355.736	1.599962
356.098	1.600423
356.461	1.601755
356.823	1.602049
357.185	1.603882
357.548	1.604873
357.910	1.605655
358.272	1.605580
358.635	1.603921
358.997	1.604421
359.359	1.606655
359.721	1.606522
360.083	1.606788
360.445	1.607233
360.807	1.606935
361.169	1.606342
361.531	1.607105
361.893	1.607372
362.255	1.609144
362.617	1.609942
362.979	1.609762
363.341	1.608892
363.703	1.609061
364.064	1.609965
364.426	1.610373
364.788	1.610035
365.149	1.609319
365.511	1.609182
365.873	1.610277
366.234	1.610996
366.596	1.611170
366.957	1.610928
367.319	1.611714
367.680	1.611592
368.042	1.610145
368.403	1.609920
368.764	1.609832
369.126	1.610441
369.487	1.611209
369.848	1.610146
370.209	1.611047
370.570	1.610648
370.931	1.612002
371.293	1.612334
371.654	1.611616
372.015	1.612399
372.376	1.613117
372.737	1.613497
373.098	1.613716
373.458	1.613476
373.819	1.615868
374.180	1.617443
374.541	1.618062
374.902	1.617958
375.263	1.619127
375.623	1.621377
375.984	1.623480
376.345	1.624101
376.705	1.625657
377.066	1.626627
377.426	1.627569
377.787	1.628209
378.147	1.629395
378.508	1.630487
378.868	1.631791
379.228	1.632808
379.589	1.632854
379.949	1.633562
380.309	1.634206
380.670	1.635054
381.030	1.635331
381.390	1.635442
381.750	1.634556
382.110	1.634762
382.470	1.635994
382.830	1.636302
383.190	1.637186
383.550	1.637466
383.910	1.639607
384.270	1.640085
384.630	1.640952
384.990	1.641385
385.350	1.641569
385.709	1.642208
386.069	1.642144
386.429	1.642260
386.788	1.643913
387.148	1.645592
387.508	1.646033
387.867	1.646586
388.227	1.646854
388.586	1.647627
388.946	1.648039
389.305	1.649976
389.665	1.650736
390.024	1.650936
390.383	1.651521
390.743	1.651566
391.102	1.651537
391.461	1.650304
391.820	1.651082
392.179	1.650070
392.539	1.650048
392.898	1.651005
393.257	1.651919
393.616	1.653469
393.975	1.653984
394.334	1.653854
394.693	1.654603
395.051	1.655139
395.410	1.655933
395.769	1.657054
396.128	1.657548
396.487	1.656913
396.845	1.656531
397.204	1.655915
397.563	1.655424
397.921	1.654982
398.280	1.654904
398.638	1.653839
398.997	1.654465
399.355	1.652652
399.714	1.653304
400.072	1.652780
400.431	1.651608
400.789	1.650842
401.147	1.649606
401.506	1.649023
401.864	1.648580
402.222	1.646991
402.580	1.644888
402.938	1.644175
403.297	1.643218
403.655	1.642105
404.013	1.642147
404.371	1.640789
404.729	1.640348
405.087	1.638495
405.444	1.638402
405.802	1.637560
406.160	1.637919
406.518	1.636243
406.876	1.635650
407.233	1.634842
407.591	1.635104
407.949	1.635184
408.306	1.634381
408.664	1.634644
409.022	1.635119
409.379	1.634165
409.737	1.633716
410.094	1.634086
410.451	1.633988
410.809	1.633800
411.166	1.633684
411.523	1.632790
411.881	1.633230
412.238	1.632756
412.595	1.633320
412.952	1.632137
413.310	1.631222
413.667	1.631134
414.024	1.632219
414.381	1.633171
414.738	1.632448
415.095	1.630727
415.452	1.628781
415.809	1.627893
416.165	1.626887
416.522	1.624483
416.879	1.623302
417.236	1.622247
417.593	1.621436
417.949	1.619054
418.306	1.616799
418.663	1.616931
419.019	1.616506
419.376	1.615139
419.732	1.614164
420.089	1.613426
420.445	1.612977
420.802	1.612840
421.158	1.610590
421.514	1.608384
421.871	1.606006
422.227	1.603870
422.583	1.603507
422.939	1.602490
423.295	1.601329
423.652	1.600530
424.008	1.599311
424.364	1.598083
424.720	1.597699
425.076	1.596933
425.432	1.596723
425.788	1.596829
426.143	1.594350
426.499	1.592613
426.855	1.591984
427.211	1.590233
427.567	1.588804
427.922	1.587865
428.278	1.584341
428.634	1.583229
428.989	1.581665
429.345	1.580187
429.700	1.579486
430.056	1.578068
430.411	1.577485
430.767	1.576003
431.122	1.573026
431.478	1.571497
431.833	1.569978
432.188	1.567186
432.543	1.564977
432.899	1.562127
433.254	1.559070
433.609	1.557295
433.964	1.555245
434.319	1.552086
434.674	1.549966
435.029	1.547726
435.384	1.544923
435.739	1.544112
436.094	1.542305
436.449	1.541170
436.804	1.539770
437.158	1.537619
437.513	1.535984
437.868	1.532999
438.223	1.530990
438.577	1.528758
438.932	1.527218
439.287	1.524792
439.641	1.522798
439.996	1.520570
440.350	1.518765
440.704	1.516895
441.059	1.514813
441.413	1.512472
441.768	1.510107
442.122	1.508574
442.476	1.506154
442.830	1.503524
443.185	1.501124
443.539	1.498314
443.893	1.495348
444.247	1.492252
444.601	1.489903
444.955	1.486477
445.309	1.483889
445.663	1.480954
446.017	1.478402
446.371	1.474800
446.724	1.471654
447.078	1.468989
447.432	1.466190
447.786	1.463113
448.139	1.459387
448.493	1.456317
448.847	1.452698
449.200	1.449369
449.554	1.445574
449.907	1.442600
450.261	1.439294
450.614	1.436140
450.968	1.432660
451.321	1.428850
451.674	1.425281
452.027	1.421269
452.381	1.417671
452.734	1.414482
453.087	1.410725
453.440	1.406671
453.793	1.403459
454.146	1.400282
454.499	1.396425
454.852	1.392493
455.205	1.388796
455.558	1.385547
455.911	1.381356
456.264	1.377859
456.617	1.374743
456.970	1.371388
457.322	1.367811
457.675	1.364699
458.028	1.361125
458.380	1.358213
458.733	1.355316
459.086	1.352325
459.438	1.349338
459.791	1.346312
460.143	1.342918
460.496	1.339638
460.848	1.336495
461.200	1.333164
461.553	1.329168
461.905	1.325875
462.257	1.322361
462.609	1.318873
462.961	1.315962
463.314	1.312851
463.666	1.309787
464.018	1.306566
464.370	1.303268
464.722	1.300166
465.074	1.296936
465.426	1.294251
465.777	1.291320
466.129	1.288517
466.481	1.285709
466.833	1.282557
467.184	1.279881
467.536	1.276694
467.888	1.273619
468.239	1.270578
468.591	1.267118
468.943	1.264160
469.294	1.260602
469.646	1.257455
469.997	1.254165
470.348	1.250500
470.700	1.247587
471.051	1.244436
471.402	1.241543
471.754	1.238682
472.105	1.235941
472.456	1.233155
472.807	1.230130
473.158	1.227325
473.509	1.224773
473.860	1.222229
474.211	1.219965
474.562	1.217361
474.913	1.214777
475.264	1.212339
475.615	1.210002
475.966	1.207703
476.316	1.205095
476.667	1.202549
477.018	1.199964
477.368	1.197514
477.719	1.194886
478.070	1.192206
478.420	1.189995
478.771	1.187365
479.121	1.184911
479.472	1.182568
479.822	1.180049
480.172	1.177763
480.523	1.175273
480.873	1.172522
481.223	1.169198
481.573	1.166034
481.924	1.162613
482.274	1.159657
482.624	1.157204
482.974	1.154940
483.324	1.152968
483.674	1.151379
484.024	1.149918
484.374	1.148570
484.724	1.147105
485.073	1.145636
485.423	1.144143
485.773	1.142427
486.123	1.140891
486.472	1.139341
486.822	1.137577
487.172	1.136136
487.521	1.134570
487.871	1.132993
488.220	1.131358
488.570	1.129740
488.919	1.127560
489.268	1.125316
489.618	1.122656
489.967	1.119401
490.316	1.115789
490.666	1.112003
491.015	1.108399
491.364	1.104855
491.713	1.101464
492.062	1.098453
492.411	1.095763
492.760	1.093101
493.109	1.090497
493.458	1.087936
493.807	1.085469
494.156	1.083044
494.505	1.080465
494.853	1.077888
495.202	1.075257
495.551	1.072555
495.900	1.069960
496.248	1.067564
496.597	1.065056
496.945	1.062619
497.294	1.060082
497.642	1.057544
497.991	1.055082
498.339	1.052277
498.688	1.050011
499.036	1.047770
499.384	1.045400
499.732	1.043051
500.081	1.040684
500.429	1.038365
500.777	1.035980
501.125	1.033652
501.473	1.031481
501.821	1.029065
502.169	1.026791
502.517	1.024566
502.865	1.022373
503.213	1.020170
503.561	1.018087
503.908	1.015993
504.256	1.013744
504.604	1.011639
504.952	1.009480
505.299	1.007233
505.647	1.005264
505.994	1.002948
506.342	1.000730
506.689	0.998573
507.037	0.996439
507.384	0.994175
507.732	0.991886
508.079	0.989779
508.426	0.987552
508.774	0.985292
509.121	0.983407
509.468	0.981530
509.815	0.979554
510.162	0.977539
510.509	0.975471
510.856	0.973414
511.203	0.971463
511.550	0.969614
511.897	0.967555
512.244	0.965691
512.591	0.963768
512.938	0.961837
513.284	0.959891
513.631	0.957943
513.978	0.956046
514.324	0.954086
514.671	0.952389
515.018	0.950604
515.364	0.948700
515.711	0.946965
516.057	0.945080
516.403	0.943213
516.750	0.941208
517.096	0.939546
517.443	0.937858
517.789	0.936272
518.135	0.934531
518.481	0.932715
518.827	0.930904
519.173	0.929189
519.519	0.927403
519.865	0.925568
520.211	0.923845
520.557	0.922134
520.903	0.920448
521.249	0.918708
521.595	0.916934
521.941	0.914991
522.287	0.913134
522.632	0.911233
522.978	0.909437
523.324	0.907704
523.669	0.905813
524.015	0.903926
524.360	0.901865
524.706	0.900022
525.051	0.898133
525.397	0.896244
525.742	0.894427
526.087	0.892728
526.433	0.891088
526.778	0.889583
527.123	0.888075
527.468	0.886365
527.813	0.884830
528.158	0.883134
528.504	0.881325
528.849	0.879438
529.193	0.877711
529.538	0.876101
529.883	0.874126
530.228	0.872069
530.573	0.870232
530.918	0.868346
531.263	0.866480
531.607	0.864792
531.952	0.862941
532.296	0.861197
532.641	0.859412
532.986	0.857499
533.330	0.855668
533.675	0.853828
534.019	0.851736
534.363	0.849641
534.708	0.847663
535.052	0.845648
535.396	0.843541
535.741	0.841779
536.085	0.839927
536.429	0.837810
536.773	0.835831
537.117	0.834003
537.461	0.831959
537.805	0.829787
538.149	0.827513
538.493	0.825282
538.837	0.822923
539.181	0.820539
539.524	0.818109
539.868	0.815801
540.212	0.813499
540.556	0.811096
540.899	0.808701
541.243	0.806429
541.586	0.804027
541.930	0.801661
542.273	0.799223
542.617	0.796819
542.960	0.794108
543.304	0.791393
543.647	0.788801
543.990	0.785907
544.333	0.783037
544.677	0.780400
545.020	0.777659
545.363	0.775010
545.706	0.772330
546.049	0.769755
546.392	0.767279
546.735	0.764589
547.078	0.761731
547.421	0.758814
547.764	0.755818
548.106	0.752784
548.449	0.749573
548.792	0.746630
549.135	0.743522
549.477	0.740371
549.820	0.737351
550.162	0.734398
550.505	0.731398
550.847	0.728241
551.190	0.725053
551.532	0.721705
551.875	0.718093
552.217	0.714505
552.559	0.711028
552.901	0.707551
553.244	0.704065
553.586	0.700622
553.928	0.697304
554.270	0.694190
554.612	0.691076
554.954	0.687966
555.296	0.684732
555.638	0.681491
555.980	0.677921
556.322	0.674247
556.663	0.670435
557.005	0.666452
557.347	0.662546
557.689	0.658738
558.030	0.655031
558.372	0.651324
558.713	0.647734
559.055	0.644106
559.396	0.640403
559.738	0.636575
560.079	0.632673
560.421	0.628917
560.762	0.625120
561.103	0.621469
561.444	0.617817
561.786	0.614298
562.127	0.610741
562.468	0.607087
562.809	0.603329
563.150	0.599513
563.491	0.595609
563.832	0.591577
564.173	0.587493
564.514	0.583227
564.855	0.578820
565.195	0.574332
565.536	0.569816
565.877	0.565342
566.218	0.560968
566.558	0.556759
566.899	0.552723
567.239	0.548913
567.580	0.545301
567.920	0.542011
568.261	0.538959
568.601	0.536039
568.941	0.533258
569.282	0.530591
569.622	0.527914
569.962	0.525297
570.302	0.522680
570.643	0.520141
570.983	0.517714
571.323	0.515416
571.663	0.513161
572.003	0.510926
572.343	0.508665
572.683	0.506326
573.022	0.503843
573.362	0.501262
573.702	0.498616
574.042	0.496014
574.381	0.493506
574.721	0.491047
575.061	0.488691
575.400	0.486447
575.740	0.484267
576.079	0.482123
576.419	0.479881
576.758	0.477533
577.097	0.475054
577.437	0.472478
577.776	0.469819
578.115	0.467223
578.454	0.464747
578.794	0.462533
579.133	0.460576
579.472	0.458808
579.811	0.457157
580.150	0.455564
580.489	0.453922
580.828	0.452157
581.167	0.450289
581.505	0.448367
581.844	0.446443
582.183	0.444484
582.522	0.442594
582.860	0.440739
583.199	0.438962
583.538	0.437292
583.876	0.435695
584.215	0.434115
584.553	0.432564
584.891	0.431032
585.230	0.429439
585.568	0.427800
585.906	0.426056
586.245	0.424292
586.583	0.422580
586.921	0.420994
587.259	0.419537
587.597	0.418156
587.935	0.416759
588.273	0.415258
588.611	0.413586
588.949	0.411804
589.287	0.409978
589.625	0.408086
589.963	0.406313
590.300	0.404557
590.638	0.402923
590.976	0.401338
591.313	0.399735
591.651	0.398097
591.989	0.396550
592.326	0.395086
592.664	0.393673
593.001	0.392349
593.338	0.391107
593.676	0.389960
594.013	0.388840
594.350	0.387735
594.687	0.386665
595.025	0.385639
595.362	0.384625
595.699	0.383542
596.036	0.382476
596.373	0.381385
596.710	0.380316
597.047	0.379178
597.384	0.378076
597.720	0.376925
598.057	0.375782
598.394	0.374664
598.731	0.373552
599.067	0.372382
599.404	0.371209
599.741	0.370093
600.077	0.369040
600.414	0.368071
600.750	0.367155
601.087	0.366308
601.423	0.365456
601.759	0.364619
602.096	0.363745
602.432	0.362916
602.768	0.362123
603.104	0.361288
603.440	0.360459
603.776	0.359644
604.112	0.358820
604.448	0.358043
604.784	0.357306
605.120	0.356531
605.456	0.355801
605.792	0.355090
606.128	0.354429
606.463	0.353732
606.799	0.352986
607.135	0.352240
607.470	0.351485
607.806	0.350752
608.142	0.349989
608.477	0.349263
608.812	0.348530
609.148	0.347891
609.483	0.347199
609.819	0.346488
610.154	0.345770
610.489	0.345036
610.824	0.344294
611.159	0.343617
611.494	0.342912
611.830	0.342280
612.165	0.341759
612.500	0.341233
612.834	0.340707
613.169	0.340194
613.504	0.339674
613.839	0.339149
614.174	0.338570
614.509	0.338040
614.843	0.337460
615.178	0.336935
615.512	0.336437
615.847	0.335929
616.182	0.335434
616.516	0.334976
616.850	0.334553
617.185	0.334153
617.519	0.333733
617.853	0.333333
618.188	0.332811
618.522	0.332276
618.856	0.331669
619.190	0.331017
619.524	0.330371
619.858	0.329754
620.192	0.329098
620.526	0.328574
620.860	0.328122
621.194	0.327700
621.528	0.327227
621.862	0.326816
622.195	0.326397
622.529	0.325924
622.863	0.325492
623.196	0.325015
623.530	0.324581
623.864	0.324132
624.197	0.323739
624.530	0.323316
624.864	0.322910
625.197	0.322609
625.531	0.322241
625.864	0.321872
626.197	0.321494
626.530	0.321133
626.863	0.320750
627.196	0.320412
627.529	0.319953
627.862	0.319469
628.195	0.319027
628.528	0.318545
628.861	0.318004
629.194	0.317559
629.527	0.317139
629.860	0.316685
630.192	0.316249
630.525	0.315739
630.858	0.315342
631.190	0.314812
631.523	0.314312
631.855	0.313679
632.188	0.313066
632.520	0.312533
632.852	0.311961
633.185	0.311499
633.517	0.310983
633.849	0.310538
634.182	0.310057
634.514	0.309754
634.846	0.309463
635.178	0.309052
635.510	0.308731
635.842	0.308371
636.174	0.308015
636.506	0.307586
636.837	0.307202
637.169	0.306820
637.501	0.306541
637.833	0.306232
638.164	0.305904
638.496	0.305554
638.828	0.305221
639.159	0.304831
639.491	0.304459
639.822	0.304030
640.154	0.303527
640.485	0.303118
640.816	0.302572
641.147	0.302106
641.479	0.301483
641.810	0.300933
642.141	0.300430
642.472	0.299901
642.803	0.299501
643.134	0.299038
643.465	0.298578
643.796	0.298115
644.127	0.297721
644.458	0.297296
644.789	0.296768
645.119	0.296558
645.450	0.296432
645.781	0.296506
646.111	0.296604
646.442	0.296668
646.773	0.296650
647.103	0.296602
647.433	0.296504
647.764	0.296396
648.094	0.296306
648.425	0.296320
648.755	0.296302
649.085	0.296145
649.415	0.296096
649.745	0.296104
650.075	0.296068
650.405	0.296057
650.735	0.294641
651.065	0.285724
651.395	0.276616
651.725	0.259855
652.055	0.218398
652.385	0.179801
652.715	0.146988
653.044	0.120287
653.374	0.107793
653.704	0.111310
654.033	0.126710
654.363	0.136113
654.692	0.141737
655.022	0.145170
655.351	0.147342
655.680	0.148664
656.010	0.149413
656.339	0.149751
656.668	0.149852
656.997	0.149817
657.326	0.149688
657.655	0.149460
657.984	0.148012
658.313	0.142191
658.642	0.134044
658.971	0.135858
659.300	0.147037
659.629	0.170046
659.958	0.210124
660.286	0.259061
660.615	0.296765
660.944	0.297256
661.272	0.296285
661.601	0.295352
661.929	0.294217
662.258	0.292833
662.586	0.291220
662.915	0.289376
663.243	0.287866
663.571	0.286563
663.899	0.285693
664.228	0.285189
664.556	0.284681
664.884	0.284182
665.212	0.283897
665.540	0.283594
665.868	0.283415
666.196	0.283290
666.524	0.283228
666.852	0.283053
667.179	0.282848
667.507	0.282695
667.835	0.282660
668.162	0.282467
668.490	0.282318
668.818	0.282314
669.145	0.282125
669.473	0.282011
669.800	0.282092
670.127	0.282164
670.455	0.282248
670.782	0.282351
671.109	0.282327
671.436	0.282386
671.764	0.282466
672.091	0.282513
672.418	0.282492
672.745	0.282470
673.072	0.282399
673.399	0.282304
673.726	0.282231
674.053	0.282222
674.379	0.282035
674.706	0.281826
675.033	0.281628
675.359	0.281519
675.686	0.281278
676.013	0.281115
676.339	0.280909
676.666	0.280617
676.992	0.280364
677.318	0.280153
677.645	0.279957
677.971	0.279829
678.297	0.279746
678.624	0.279662
678.950	0.279534
679.276	0.279452
679.602	0.279301
679.928	0.279116
680.254	0.278887
680.580	0.278708
680.906	0.278468
681.232	0.278476
681.558	0.278522
681.883	0.278616
682.209	0.278710
682.535	0.278832
682.860	0.278817
683.186	0.278958
683.511	0.278912
683.837	0.278842
684.162	0.278851
684.488	0.278743
684.813	0.278694
685.138	0.278529
685.464	0.278366
685.789	0.278134
686.114	0.277977
686.439	0.277898
686.764	0.277814
687.089	0.277772
687.414	0.277659
687.739	0.277681
688.064	0.277556
688.389	0.277500
688.714	0.277306
689.039	0.277087
689.363	0.276827
689.688	0.276724
690.013	0.276438
690.337	0.276258
690.662	0.276122
690.986	0.275977
691.311	0.275911
691.635	0.275723
691.959	0.275536
692.284	0.275338
692.608	0.275229
692.932	0.275117
693.256	0.274958
693.580	0.274868
693.904	0.274800
694.228	0.274855
694.552	0.274840
694.876	0.274883
695.200	0.274751
695.524	0.274683
695.848	0.274516
696.172	0.274368
696.495	0.274127
696.819	0.273994
697.143	0.273746
697.466	0.273530
697.790	0.273201
698.113	0.272876
698.437	0.272588
698.760	0.272407
699.083	0.272356
699.407	0.272236
699.730	0.272107
700.053	0.272070
700.376	0.272018
700.699	0.271924
701.022	0.271664
701.345	0.271237
701.668	0.270782
701.991	0.270243
702.314	0.269652
702.637	0.269096
702.960	0.268609
703.283	0.268081
703.605	0.267514
703.928	0.267300
704.251	0.267209
704.573	0.267140
704.896	0.267105
705.218	0.267053
705.540	0.266958
705.863	0.266679
706.185	0.266413
706.507	0.266067
706.830	0.265652
707.152	0.265150
707.474	0.264628
707.796	0.264185
708.118	0.263792
708.440	0.263469
708.762	0.263351
709.084	0.263215
709.406	0.263051
709.728	0.262866
710.049	0.262756
710.371	0.262657
710.693	0.262369
711.014	0.261976
711.336	0.261734
711.658	0.261507
711.979	0.261391
712.301	0.261218
712.622	0.261151
712.943	0.260997
713.265	0.260906
713.586	0.260796
713.907	0.260800
714.228	0.260785
714.549	0.260818
714.870	0.260867
715.191	0.260877
715.512	0.260825
715.833	0.260830
716.154	0.260801
716.475	0.260693
716.796	0.260631
717.117	0.260433
717.437	0.260154
717.758	0.259917
718.078	0.259509
718.399	0.259165
718.719	0.258696
719.040	0.258308
719.360	0.257924
719.681	0.257643
720.001	0.257413
720.321	0.257186
720.642	0.256956
720.962	0.256706
721.282	0.256520
721.602	0.256394
721.922	0.256203
722.242	0.255951
722.562	0.255673
722.882	0.255479
723.202	0.255562
723.521	0.255430
723.841	0.255413
724.161	0.255500
724.481	0.255514
724.800	0.255554
725.120	0.255446
725.439	0.255397
725.759	0.255415
726.078	0.255371
726.398	0.255245
726.717	0.255242
727.036	0.255259
727.355	0.255302
727.675	0.255428
727.994	0.255521
728.313	0.255678
728.632	0.255776
728.951	0.255873
729.270	0.255882
729.589	0.255820
729.908	0.255531
730.226	0.255264
730.545	0.255077
730.864	0.254831
731.182	0.254636
731.501	0.254475
731.820	0.254393
732.138	0.254329
732.457	0.254152
732.775	0.254049
733.093	0.254021
733.412	0.253913
733.730	0.253800
734.048	0.253677
734.367	0.253501
734.685	0.253258
735.003	0.252871
735.321	0.252544
735.639	0.252207
735.957	0.251960
736.275	0.251762
736.593	0.251682
736.910	0.251661
737.228	0.251574
737.546	0.251501
737.863	0.251382
738.181	0.251163
738.499	0.250934
738.816	0.250632
739.134	0.250400
739.451	0.250190
739.768	0.249961
740.086	0.249683
740.403	0.249404
740.720	0.249103
741.038	0.248671
741.355	0.248321
741.672	0.248031
741.989	0.247715
742.306	0.247375
742.623	0.246985
742.940	0.246580
743.257	0.245933
743.573	0.245359
743.890	0.244758
744.207	0.244254
744.523	0.243851
744.840	0.243466
745.157	0.243106
745.473	0.242765
745.790	0.242487
746.106	0.242119
746.422	0.241843
746.739	0.241532
747.055	0.241371
747.371	0.241165
747.687	0.241233
748.004	0.241186
748.320	0.241297
748.636	0.241299
748.952	0.241337
749.268	0.241379
749.584	0.241490
749.899	0.241561
750.215	0.241626
750.531	0.241616
750.847	0.241654
751.162	0.241651
751.478	0.241728
751.793	0.241662
752.109	0.241641
752.424	0.241608
752.740	0.241583
753.055	0.241645
753.370	0.241701
753.686	0.241795
754.001	0.242078
754.316	0.242323
754.631	0.242557
754.946	0.242681
755.261	0.242774
755.576	0.242847
755.891	0.242827
756.206	0.242725
756.521	0.242694
756.836	0.242611
757.150	0.242537
757.465	0.242483
757.780	0.242482
758.094	0.242525
758.409	0.242608
758.723	0.242736
759.038	0.242734
759.352	0.242763
759.667	0.242657
759.981	0.242582
760.295	0.242313
760.609	0.242009
760.923	0.241744
761.238	0.241460
761.552	0.241162
761.866	0.240997
762.180	0.240890
762.493	0.240799
762.807	0.240676
763.121	0.240541
763.435	0.240384
763.749	0.240216
764.062	0.239953
764.376	0.239625
764.689	0.239257
765.003	0.238938
765.316	0.238604
765.630	0.238512
765.943	0.238396
766.257	0.238331
766.570	0.238225
766.883	0.238107
767.196	0.237835
767.509	0.237440
767.822	0.237087
768.135	0.236797
768.448	0.236492
768.761	0.236000
769.074	0.235684
769.387	0.235398
769.700	0.235192
770.013	0.235012
770.325	0.234888
770.638	0.234827
770.950	0.234743
771.263	0.234613
771.575	0.234367
771.888	0.234100
772.200	0.233687
772.513	0.233174
772.825	0.232635
773.137	0.232156
773.449	0.231810
773.761	0.231492
774.074	0.231205
774.386	0.230969
774.698	0.230650
775.010	0.230127
775.321	0.229892
775.633	0.229589
775.945	0.229300
776.257	0.229082
776.568	0.228864
776.880	0.228742
777.192	0.228579
777.503	0.228376
777.815	0.228218
778.126	0.228257
778.438	0.228429
778.749	0.228664
779.060	0.228861
779.372	0.229075
779.683	0.229099
779.994	0.229177
780.305	0.229260
780.616	0.229371
780.927	0.229377
781.238	0.229328
781.549	0.229439
781.860	0.229493
782.171	0.229514
782.481	0.229631
782.792	0.229521
783.103	0.229467
783.413	0.229372
783.724	0.229227
784.034	0.229195
784.345	0.229062
784.655	0.228936
784.966	0.228658
785.276	0.228314
785.586	0.228165
785.896	0.227994
786.207	0.227982
786.517	0.227924
786.827	0.227867
787.137	0.227737
787.447	0.227572
787.757	0.227560
788.066	0.227440
788.376	0.227417
788.686	0.227284
788.996	0.227121
789.305	0.227038
789.615	0.226865
789.925	0.226799
790.234	0.226736
790.544	0.226679
790.853	0.226720
791.162	0.226748
791.472	0.226773
791.781	0.226930
792.090	0.226942
792.399	0.226860
792.708	0.226684
793.017	0.226538
793.326	0.226270
793.635	0.226101
793.944	0.225877
794.253	0.225582
794.562	0.225330
794.871	0.225146
795.179	0.224970
795.488	0.224775
795.797	0.224611
796.105	0.224554
796.414	0.224392
796.722	0.224296
797.031	0.224121
797.339	0.223751
797.647	0.223249
797.956	0.222720
798.264	0.222116
798.572	0.221438
798.880	0.221000
799.188	0.220587
799.496	0.220119
799.804	0.219950
800.112	0.219670
800.420	0.219531
800.728	0.219424
801.035	0.219283
801.343	0.218766
801.651	0.218409
801.958	0.218107
802.266	0.217965
802.573	0.218006
802.881	0.217964
803.188	0.217829
803.496	0.217893
803.803	0.218062
804.110	0.218226
804.417	0.218238
804.724	0.218122
805.032	0.218010
805.339	0.217834
805.646	0.217674
805.953	0.217433
806.259	0.217301
806.566	0.217089
806.873	0.217014
807.180	0.216937
807.486	0.216792
807.793	0.216823
808.100	0.216828
808.406	0.216683
808.713	0.216353
809.019	0.215780
809.326	0.215323
809.632	0.214978
809.938	0.214259
810.244	0.213669
810.551	0.212990
810.857	0.212587
811.163	0.212353
811.469	0.212114
811.775	0.211815
812.081	0.211660
812.387	0.211625
812.692	0.211340
812.998	0.211319
813.304	0.211141
813.610	0.210931
813.915	0.210753
814.221	0.210498
814.526	0.210341
814.832	0.210383
815.137	0.210587
815.443	0.210597
815.748	0.210579
816.053	0.210385
816.358	0.210110
816.664	0.209909
816.969	0.209815
817.274	0.209559
817.579	0.209357
817.884	0.209097
818.189	0.208879
818.493	0.208582
818.798	0.208553
819.103	0.208496
819.408	0.208106
819.712	0.207846
820.017	0.207436
820.321	0.207138
820.626	0.207175
820.930	0.206916
821.235	0.206471
821.539	0.206183
821.843	0.206084
822.148	0.205921
822.452	0.205946
822.756	0.206143
823.060	0.205965
823.364	0.206102
823.668	0.206031
823.972	0.205726
824.276	0.205741
824.580	0.205582
824.883	0.205788
825.187	0.205641
825.491	0.205414
825.795	0.205446
826.098	0.205414
826.402	0.205540
826.705	0.205760
827.008	0.205155
827.312	0.204597
827.615	0.204373
827.918	0.204042
828.222	0.203694
828.525	0.203387
828.828	0.202875
829.131	0.202456
829.434	0.202289
829.737	0.201847
830.040	0.201187
830.343	0.200858
830.645	0.200491
830.948	0.200284
831.251	0.199454
831.553	0.198886
831.856	0.198532
832.159	0.198468
832.461	0.198503
832.764	0.198123
833.066	0.197323
833.368	0.197448
833.671	0.197742
833.973	0.197656
834.275	0.197220
834.577	0.196867
834.879	0.196489
835.181	0.196184
835.483	0.195546
835.785	0.194673
836.087	0.194045
836.389	0.193948
836.690	0.193164
836.992	0.191945
837.294	0.190750
837.595	0.189953
837.897	0.189392
838.198	0.188592
838.500	0.187038
838.801	0.185468
839.103	0.184320
839.404	0.183737
839.705	0.183065
840.006	0.182346
840.307	0.181927
840.608	0.181724
840.910	0.181773
841.210	0.181987
841.511	0.181946
841.812	0.182072
842.113	0.182249
842.414	0.181486
842.715	0.180477
843.015	0.179607
843.316	0.179276
843.616	0.178474
843.917	0.177469
844.217	0.176318
844.518	0.176098
844.818	0.175782
845.118	0.175386
845.419	0.175851
845.719	0.175886
846.019	0.175352
846.319	0.175503
846.619	0.175137
846.919	0.175989
847.219	0.175794
847.519	0.175082
847.819	0.174970
848.118	0.174347
848.418	0.174574
848.718	0.173740
849.017	0.174105
849.317	0.174762
849.616	0.175163
849.916	0.176871
850.215	0.178063
850.515	0.179280
850.814	0.179971
851.113	0.181121
851.412	0.181849
851.712	0.181977
852.011	0.181954
852.310	0.182479
852.609	0.182497
852.908	0.182849
853.206	0.182393
853.505	0.182598
853.804	0.182850
854.103	0.182789
854.401	0.183011
854.700	0.182847
854.999	0.183001
855.297	0.182942
855.595	0.182995
855.894	0.183065
856.192	0.182549
856.491	0.182115
856.789	0.181511
857.087	0.180639
857.385	0.179641
857.683	0.179019
857.981	0.178293
858.279	0.177993
858.577	0.176911
858.875	0.176098
859.173	0.175194
859.471	0.174961
859.768	0.174233
860.066	0.173378
860.363	0.172862
860.661	0.172045
860.959	0.172459
861.256	0.172786
861.553	0.172725
861.851	0.171493
862.148	0.170986
862.445	0.170504
862.742	0.170267
863.039	0.168863
863.337	0.167991
863.634	0.167368
863.931	0.166312
864.227	0.165581
864.524	0.165176
864.821	0.165157
865.118	0.164834
865.415	0.164367
865.711	0.163683
866.008	0.162293
866.304	0.161761
866.601	0.161699
866.897	0.160985
867.194	0.159690
867.490	0.158661
867.786	0.157932
868.082	0.158631
868.379	0.158007
868.675	0.158061
868.971	0.157687
869.267	0.158513
869.563	0.159604
869.859	0.158723
870.154	0.158583
870.450	0.159202
870.746	0.158663
871.042	0.159085
871.337	0.158869
871.633	0.158618
871.928	0.158278
872.224	0.158080
872.519	0.157150
872.815	0.156684
873.110	0.156808
873.405	0.157106
873.700	0.157267
873.995	0.157181
874.291	0.157174
874.586	0.158044
874.881	0.157949
875.175	0.157535
875.470	0.157565
875.765	0.156959
876.060	0.157870
876.355	0.158198
876.649	0.158112
876.944	0.158165
877.238	0.157960
877.533	0.158436
877.827	0.159288
878.122	0.159916
878.416	0.160768
878.710	0.161940
879.005	0.161708
879.299	0.162237
879.593	0.161871
879.887	0.161620
880.181	0.161058
880.475	0.160889
880.769	0.159982
881.063	0.160011
881.356	0.159911
881.650	0.159454
881.944	0.158482
882.238	0.166701
882.531	0.159669
882.825	0.147174
883.118	0.140314
883.412	0.158807
883.705	0.144288
883.998	0.160538
884.291	0.146298
884.585	0.151122
884.878	0.137210
>>>>>>>>>> END of Data <<<<<<<<<<
>>>>>>>>>> Raw Data Start <<<<<<<<
190.664	-406
191.040	8
191.415	8
191.791	7
192.166	5
192.542	12
192.917	5
193.293	13
193.668	5
194.044	6
194.419	-10
194.794	10
195.170	10
195.545	10
195.920	11
196.296	11
196.671	12
197.046	12
197.421	13
197.796	13
198.171	14
198.546	14
198.922	15
199.297	15
199.672	15
200.047	15
200.422	16
200.796	16
201.171	16
201.546	16
201.921	16
202.296	16
202.671	16
203.045	16
203.420	16
203.795	16
204.170	16
204.544	16
204.919	16
205.294	16
205.668	16
206.043	15
206.417	15
206.792	15
207.166	15
207.541	15
207.915	14
208.289	14
208.664	14
209.038	14
209.412	14
209.787	14
210.161	14
210.535	14
210.909	14
211.284	14
211.658	14
212.032	13
212.406	13
212.780	13
213.154	13
213.528	13
213.902	13
214.276	13
214.650	13
215.024	13
215.398	13
215.772	13
216.145	13
216.519	13
216.893	13
217.267	13
217.640	14
218.014	14
218.388	14
218.761	14
219.135	14
219.508	14
219.882	14
220.256	14
220.629	14
221.003	14
221.376	14
221.749	15
222.123	15
222.496	15
222.869	15
223.243	15
223.616	14
223.989	15
224.362	15
224.736	15
225.109	15
225.482	15
225.855	15
226.228	15
226.601	15
226.974	15
227.347	14
227.720	14
228.093	14
228.466	14
228.839	14
229.212	15
229.585	14
229.957	14
230.330	14
230.703	14
231.076	14
231.448	14
231.821	14
232.194	14
232.566	14
232.939	14
233.311	14
233.684	14
234.056	14
234.429	14
234.801	14
235.174	14
235.546	14
235.918	15
236.291	15
236.663	15
237.035	15
237.408	15
237.780	15
238.152	15
238.524	16
238.896	16
239.268	16
239.641	16
240.013	16
240.385	16
240.757	16
241.129	16
241.500	16
241.872	16
242.244	16
242.616	16
242.988	16
243.360	16
243.731	16
244.103	16
244.475	15
244.847	15
245.218	15
245.590	16
245.961	16
246.333	16
246.705	15
247.076	15
247.448	15
247.819	16
248.190	16
248.562	16
248.933	16
249.305	16
249.676	17
250.047	17
250.418	17
250.790	17
251.161	17
251.532	17
251.903	17
252.274	17
252.645	17
253.016	17
253.387	17
253.758	18
254.129	17
254.500	17
254.871	18
255.242	18
255.613	18
255.984	18
256.355	17
256.725	17
257.096	17
257.467	17
257.838	16
258.208	16
258.579	16
258.949	16
259.320	16
259.690	17
260.061	17
260.431	17
260.802	17
261.172	16
261.543	16
261.913	16
262.283	17
262.654	17
263.024	17
263.394	17
263.764	17
264.135	17
264.505	17
264.875	17
265.245	17
265.615	17
265.985	17
266.355	17
266.725	17
267.095	17
267.465	17
267.835	17
268.205	17
268.575	17
268.944	17
269.314	17
269.684	17
270.054	17
270.423	17
270.793	17
271.163	16
271.532	16
271.902	16
272.271	16
272.641	16
273.010	16
273.380	16
273.749	16
274.119	16
274.488	16
274.857	16
275.227	16
275.596	16
275.965	16
276.335	17
276.704	16
277.073	16
277.442	16
277.811	16
278.180	16
278.549	16
278.918	16
279.287	17
279.656	17
280.025	17
280.394	17
280.763	17
281.132	17
281.501	17
281.869	16
282.238	16
282.607	16
282.976	16
283.344	16
283.713	16
284.081	16
284.450	16
284.819	16
285.187	16
285.556	16
285.924	16
286.292	17
286.661	16
287.029	16
287.398	17
287.766	17
288.134	17
288.502	17
288.871	17
289.239	17
289.607	17
289.975	17
290.343	17
290.711	17
291.079	17
291.447	16
291.815	17
292.183	17
292.551	16
292.919	16
293.287	16
293.655	16
294.022	16
294.390	16
294.758	16
295.126	16
295.493	16
295.861	15
296.229	15
296.596	15
296.964	15
297.331	16
297.699	16
298.066	16
298.434	16
298.801	16
299.168	16
299.536	16
299.903	16
300.270	16
300.638	16
301.005	17
301.372	17
301.739	17
302.106	17
302.473	18
302.840	18
303.207	18
303.574	18
303.941	18
304.308	18
304.675	18
305.042	17
305.409	17
305.776	17
306.143	17
306.509	17
306.876	17
307.243	17
307.610	17
307.976	17
308.343	17
308.709	17
309.076	17
309.442	17
309.809	17
310.175	17
310.542	17
310.908	17
311.275	17
311.641	17
312.007	17
312.373	17
312.740	18
313.106	18
313.472	17
313.838	17
314.204	18
314.570	18
314.936	19
315.302	19
315.668	19
316.034	19
316.400	19
316.766	19
317.132	19
317.498	19
317.864	19
318.230	20
318.595	20
318.961	20
319.327	21
319.692	21
320.058	22
320.424	22
320.789	22
321.155	23
321.520	23
321.886	23
322.251	24
322.616	24
322.982	25
323.347	25
323.712	26
324.078	27
324.443	27
324.808	28
325.173	29
325.539	29
325.904	30
326.269	31
326.634	31
326.999	32
327.364	33
327.729	33
328.094	34
328.459	35
328.823	36
329.188	36
329.553	37
329.918	38
330.283	38
330.647	39
331.012	40
331.377	41
331.741	42
332.106	42
332.470	43
332.835	44
333.199	45
333.564	45
333.928	46
334.293	47
334.657	48
335.021	49
335.386	50
335.750	51
336.114	52
336.478	53
336.843	54
337.207	55
337.571	56
337.935	57
338.299	58
338.663	59
339.027	60
339.391	61
339.755	62
340.119	63
340.483	65
340.846	65
341.210	66
341.574	67
341.938	68
342.301	69
342.665	70
343.029	71
343.392	72
343.756	73
344.119	74
344.483	75
344.846	76
345.210	77
345.573	78
345.937	78
346.300	79
346.663	80
347.027	80
347.390	81
347.753	82
348.116	83
348.479	84
348.843	85
349.206	86
349.569	87
349.932	87
350.295	88
350.658	89
351.021	89
351.383	90
351.746	90
352.109	91
352.472	92
352.835	92
353.197	92
353.560	93
353.923	94
354.285	95
354.648	95
355.011	96
355.373	96
355.736	97
356.098	97
356.461	98
356.823	98
357.185	98
357.548	99
357.910	99
358.272	100
358.635	101
358.997	101
359.359	101
359.721	102
360.083	102
360.445	103
360.807	103
361.169	104
361.531	104
361.893	105
362.255	105
362.617	105
362.979	106
363.341	107
363.703	107
364.064	108
364.426	108
364.788	109
365.149	109
365.511	110
365.873	110
366.234	110
366.596	111
366.957	111
367.319	111
367.680	112
368.042	112
368.403	113
368.764	113
369.126	113
369.487	113
369.848	114
370.209	114
370.570	114
370.931	114
371.293	114
371.654	114
372.015	114
372.376	114
372.737	114
373.098	114
373.458	115
373.819	115
374.180	114
374.541	115
374.902	115
375.263	115
375.623	115
375.984	115
376.345	116
376.705	116
377.066	116
377.426	116
377.787	117
378.147	117
378.508	117
378.868	117
379.228	117
379.589	117
379.949	118
380.309	118
380.670	118
381.030	118
381.390	118
381.750	119
382.110	119
382.470	119
382.830	119
383.190	119
383.550	119
383.910	119
384.270	119
384.630	119
384.990	120
385.350	120
385.709	121
386.069	121
386.429	121
386.788	121
387.148	121
387.508	121
387.867	121
388.227	122
388.586	122
388.946	123
389.305	123
389.665	123
390.024	124
390.383	125
390.743	125
391.102	126
391.461	127
391.820	127
392.179	127
392.539	127
392.898	127
393.257	128
393.616	128
393.975	128
394.334	129
394.693	130
395.051	131
395.410	131
395.769	132
396.128	132
396.487	133
396.845	133
397.204	133
397.563	133
397.921	134
398.280	134
398.638	134
398.997	134
399.355	134
399.714	134
400.072	135
400.431	135
400.789	136
401.147	136
401.506	137
401.864	137
402.222	137
402.580	138
402.938	138
403.297	138
403.655	138
404.013	137
404.371	137
404.729	137
405.087	138
405.444	138
405.802	138
406.160	138
406.518	139
406.876	139
407.233	139
407.591	139
407.949	139
408.306	139
408.664	139
409.022	139
409.379	139
409.737	139
410.094	139
410.451	139
410.809	140
411.166	140
411.523	140
411.881	140
412.238	141
412.595	141
412.952	141
413.310	141
413.667	141
414.024	141
414.381	141
414.738	141
415.095	142
415.452	142
415.809	143
416.165	143
416.522	144
416.879	145
417.236	145
417.593	146
417.949	148
418.306	150
418.663	151
419.019	152
419.376	154
419.732	156
420.089	157
420.445	158
420.802	159
421.158	161
421.514	163
421.871	164
422.227	166
422.583	166
422.939	167
423.295	168
423.652	168
424.008	169
424.364	170
424.720	170
425.076	170
425.432	170
425.788	169
426.143	170
426.499	171
426.855	172
427.211	172
427.567	173
427.922	174
428.278	175
428.634	175
428.989	176
429.345	176
429.700	177
430.056	178
430.411	178
430.767	179
431.122	181
431.478	182
431.833	183
432.188	184
432.543	185
432.899	186
433.254	187
433.609	187
433.964	187
434.319	187
434.674	188
435.029	188
435.384	189
435.739	189
436.094	190
436.449	191
436.804	193
437.158	195
437.513	196
437.868	199
438.223	201
438.577	204
438.932	206
439.287	209
439.641	212
439.996	215
440.350	217
440.704	220
441.059	223
441.413	226
441.768	228
442.122	231
442.476	233
442.830	236
443.185	239
443.539	242
443.893	245
444.247	247
444.601	249
444.955	251
445.309	252
445.663	253
446.017	254
446.371	255
446.724	255
447.078	256
447.432	256
447.786	256
448.139	257
448.493	257
448.847	257
449.200	257
449.554	258
449.907	258
450.261	258
450.614	258
450.968	258
451.321	258
451.674	259
452.027	259
452.381	260
452.734	260
453.087	261
453.440	262
453.793	263
454.146	264
454.499	267
454.852	269
455.205	272
455.558	275
455.911	278
456.264	281
456.617	283
456.970	286
457.322	289
457.675	291
458.028	294
458.380	296
458.733	297
459.086	299
459.438	301
459.791	304
460.143	307
460.496	310
460.848	314
461.200	318
461.553	323
461.905	327
462.257	331
462.609	335
462.961	338
463.314	341
463.666	344
464.018	346
464.370	349
464.722	352
465.074	355
465.426	357
465.777	360
466.129	362
466.481	363
466.833	365
467.184	366
467.536	366
467.888	366
468.239	366
468.591	367
468.943	366
469.294	367
469.646	368
469.997	370
470.348	372
470.700	375
471.051	379
471.402	384
471.754	389
472.105	395
472.456	401
472.807	408
473.158	415
473.509	423
473.860	432
474.211	441
474.562	450
474.913	460
475.264	470
475.615	480
475.966	490
476.316	500
476.667	510
477.018	520
477.368	531
477.719	542
478.070	552
478.420	561
478.771	571
479.121	581
479.472	590
479.822	600
480.172	611
480.523	623
480.873	640
481.223	667
481.573	708
481.924	760
482.274	817
482.624	877
482.974	937
483.324	990
483.674	1030
484.024	1057
484.374	1076
484.724	1088
485.073	1097
485.423	1104
485.773	1112
486.123	1119
486.472	1126
486.822	1133
487.172	1138
487.521	1143
487.871	1146
488.220	1143
488.570	1130
488.919	1104
489.268	1066
489.618	1023
489.967	977
490.316	930
490.666	889
491.015	860
491.364	844
491.713	837
492.062	835
492.411	837
492.760	841
493.109	845
493.458	849
493.807	853
494.156	856
494.505	859
494.853	863
495.202	867
495.551	873
495.900	879
496.248	885
496.597	891
496.945	897
497.294	903
497.642	909
497.991	916
498.339	925
498.688	933
499.036	941
499.384	948
499.732	955
500.081	961
500.429	966
500.777	971
501.125	976
501.473	981
501.821	986
502.169	991
502.517	996
502.865	999
503.213	1001
503.561	1003
503.908	1004
504.256	1005
504.604	1006
504.952	1006
505.299	1006
505.647	1005
505.994	1003
506.342	1001
506.689	999
507.037	997
507.384	996
507.732	996
508.079	996
508.426	996
508.774	997
509.121	996
509.468	995
509.815	994
510.162	994
510.509	993
510.856	992
511.203	991
511.550	989
511.897	989
512.244	987
512.591	986
512.938	985
513.284	985
513.631	983
513.978	982
514.324	980
514.671	977
515.018	975
515.364	973
515.711	971
516.057	969
516.403	968
516.750	966
517.096	963
517.443	960
517.789	957
518.135	954
518.481	952
518.827	950
519.173	947
519.519	945
519.865	943
520.211	942
520.557	940
520.903	939
521.249	938
521.595	937
521.941	937
522.287	936
522.632	935
522.978	934
523.324	934
523.669	935
524.015	936
524.360	939
524.706	942
525.051	947
525.397	952
525.742	958
526.087	964
526.433	969
526.778	974
527.123	978
527.468	981
527.813	984
528.158	987
528.504	991
528.849	997
529.193	1004
529.538	1012
529.883	1023
530.228	1035
530.573	1048
530.918	1062
531.263	1076
531.607	1088
531.952	1100
532.296	1109
532.641	1117
532.986	1124
533.330	1130
533.675	1136
534.019	1145
534.363	1156
534.708	1169
535.052	1183
535.396	1199
535.741	1214
536.085	1227
536.429	1239
536.773	1249
537.117	1257
537.461	1264
537.805	1270
538.149	1278
538.493	1285
538.837	1294
539.181	1304
539.524	1317
539.868	1331
540.212	1347
540.556	1364
540.899	1381
541.243	1397
541.586	1411
541.930	1422
542.273	1430
542.617	1437
542.960	1444
543.304	1454
543.647	1465
543.990	1480
544.333	1498
544.677	1514
545.020	1531
545.363	1545
545.706	1556
546.049	1564
546.392	1569
546.735	1572
547.078	1574
547.421	1577
547.764	1580
548.106	1585
548.449	1591
548.792	1599
549.135	1611
549.477	1626
549.820	1641
550.162	1653
550.505	1663
550.847	1672
551.190	1677
551.532	1682
551.875	1688
552.217	1694
552.559	1702
552.901	1713
553.244	1725
553.586	1739
553.928	1753
554.270	1766
554.612	1776
554.954	1785
555.296	1793
555.638	1801
555.980	1809
556.322	1820
556.663	1833
557.005	1852
557.347	1875
557.689	1899
558.030	1923
558.372	1945
558.713	1965
559.055	1985
559.396	2005
559.738	2026
560.079	2048
560.421	2073
560.762	2102
561.103	2133
561.444	2168
561.786	2203
562.127	2241
562.468	2282
562.809	2327
563.150	2377
563.491	2431
563.832	2491
564.173	2558
564.514	2636
564.855	2729
565.195	2842
565.536	2977
565.877	3134
566.218	3312
566.558	3513
566.899	3734
567.239	3971
567.580	4221
567.920	4478
568.261	4738
568.601	5004
568.941	5280
569.282	5564
569.622	5860
569.962	6167
570.302	6496
570.643	6836
570.983	7180
571.323	7512
571.663	7833
572.003	8139
572.343	8427
572.683	8698
573.022	8975
573.362	9268
573.702	9571
574.042	9875
574.381	10167
574.721	10446
575.061	10714
575.400	10959
575.740	11177
576.079	11372
576.419	11566
576.758	11786
577.097	12046
577.437	12331
577.776	12635
578.115	12952
578.454	13274
578.794	13569
579.133	13800
579.472	13960
579.811	14057
580.150	14094
580.489	14086
580.828	14059
581.167	14035
581.505	14024
581.844	14020
582.183	14016
582.522	14021
582.860	14034
583.199	14047
583.538	14039
583.876	13986
584.215	13875
584.553	13697
584.891	13458
585.230	13163
585.568	12836
585.906	12503
586.245	12204
586.583	11948
586.921	11737
587.259	11546
587.597	11354
587.935	11152
588.273	10946
588.611	10754
588.949	10586
589.287	10446
589.625	10339
589.963	10256
590.300	10192
590.638	10133
590.976	10065
591.313	9984
591.651	9908
591.989	9841
592.326	9787
592.664	9744
593.001	9708
593.338	9688
593.676	9682
594.013	9693
594.350	9734
594.687	9801
595.025	9876
595.362	9943
595.699	9994
596.036	10027
596.373	10040
596.710	10025
597.047	9993
597.384	9953
597.720	9908
598.057	9873
598.394	9848
598.731	9837
599.067	9843
599.404	9866
599.741	9912
600.077	9974
600.414	10042
600.750	10114
601.087	10170
601.423	10198
601.759	10204
602.096	10190
602.432	10164
602.768	10122
603.104	10062
603.440	9988
603.776	9909
604.112	9823
604.448	9735
604.784	9642
605.120	9543
605.456	9447
605.792	9346
606.128	9238
606.463	9129
606.799	9019
607.135	8919
607.470	8820
607.806	8721
608.142	8626
608.477	8534
608.812	8445
609.148	8355
609.483	8260
609.819	8164
610.154	8072
610.489	7987
610.824	7914
611.159	7852
611.494	7789
611.830	7734
612.165	7680
612.500	7618
612.834	7547
613.169	7465
613.504	7375
613.839	7274
614.174	7160
614.509	7044
614.843	6930
615.178	6821
615.512	6712
615.847	6607
616.182	6502
616.516	6395
616.850	6282
617.185	6164
617.519	6045
617.853	5916
618.188	5783
618.522	5661
618.856	5558
619.190	5469
619.524	5392
619.858	5330
620.192	5282
620.526	5239
620.860	5196
621.194	5154
621.528	5114
621.862	5073
622.195	5024
622.529	4971
622.863	4916
623.196	4861
623.530	4806
623.864	4750
624.197	4694
624.530	4639
624.864	4590
625.197	4538
625.531	4480
625.864	4410
626.197	4335
626.530	4253
626.863	4161
627.196	4061
627.529	3961
627.862	3861
628.195	3763
628.528	3666
628.861	3573
629.194	3489
629.527	3409
629.860	3331
630.192	3253
630.525	3180
630.858	3112
631.190	3048
631.523	2986
631.855	2929
632.188	2879
632.520	2832
632.852	2788
633.185	2742
633.517	2698
633.849	2659
634.182	2623
634.514	2588
634.846	2557
635.178	2530
635.510	2506
635.842	2485
636.174	2463
636.506	2442
636.837	2421
637.169	2401
637.501	2379
637.833	2355
638.164	2327
638.496	2297
638.828	2262
639.159	2224
639.491	2181
639.822	2138
640.154	2094
640.485	2050
640.816	2007
641.147	1964
641.479	1924
641.810	1884
642.141	1845
642.472	1808
642.803	1770
643.134	1734
643.465	1703
643.796	1679
644.127	1662
644.458	1653
644.789	1653
645.119	1663
645.450	1678
645.781	1696
646.111	1713
646.442	1728
646.773	1740
647.103	1749
647.433	1757
647.764	1766
648.094	1777
648.425	1791
648.755	1808
649.085	1828
649.415	1849
649.745	1871
650.075	1894
650.405	1919
650.735	1974
651.065	2371
651.395	3615
651.725	5707
652.055	8417
652.385	11531
652.715	14950
653.044	18573
653.374	21874
653.704	24440
654.033	26241
654.363	27472
654.692	28285
655.022	28811
655.351	29152
655.680	29363
656.010	29474
656.339	29524
656.668	29536
656.997	29528
657.326	29506
657.655	29446
657.984	29035
658.313	27772
658.642	25654
658.971	22911
659.300	19760
659.629	16305
659.958	12648
660.286	9317
660.615	6724
660.944	4903
661.272	3653
661.601	2824
661.929	2279
662.258	1916
662.586	1679
662.915	1537
663.243	1455
663.571	1408
663.899	1380
664.228	1362
664.556	1350
664.884	1343
665.212	1336
665.540	1332
665.868	1330
666.196	1329
666.524	1328
666.852	1330
667.179	1335
667.507	1345
667.835	1360
668.162	1380
668.490	1405
668.818	1434
669.145	1465
669.473	1496
669.800	1524
670.127	1549
670.455	1569
670.782	1586
671.109	1601
671.436	1614
671.764	1624
672.091	1633
672.418	1640
672.745	1646
673.072	1653
673.399	1660
673.726	1668
674.053	1674
674.379	1676
674.706	1676
675.033	1675
675.359	1673
675.686	1670
676.013	1668
676.339	1669
676.666	1675
676.992	1687
677.318	1705
677.645	1725
677.971	1743
678.297	1760
678.624	1776
678.950	1792
679.276	1806
679.602	1820
679.928	1834
680.254	1853
680.580	1876
680.906	1906
681.232	1942
681.558	1980
681.883	2017
682.209	2052
682.535	2084
682.860	2114
683.186	2138
683.511	2158
683.837	2170
684.162	2179
684.488	2187
684.813	2195
685.138	2203
685.464	2209
685.789	2216
686.114	2221
686.439	2229
686.764	2237
687.089	2243
687.414	2243
687.739	2236
688.064	2223
688.389	2206
688.714	2186
689.039	2164
689.363	2141
689.688	2116
690.013	2091
690.337	2070
690.662	2052
690.986	2036
691.311	2020
691.635	2003
691.959	1989
692.284	1978
692.608	1975
692.932	1979
693.256	1985
693.580	1994
693.904	2005
694.228	2017
694.552	2029
694.876	2034
695.200	2033
695.524	2024
695.848	2011
696.172	1994
696.495	1977
696.819	1959
697.143	1941
697.466	1921
697.790	1905
698.113	1895
698.437	1889
698.760	1888
699.083	1887
699.407	1882
699.730	1872
700.053	1856
700.376	1835
700.699	1804
701.022	1767
701.345	1726
701.668	1688
701.991	1656
702.314	1634
702.637	1624
702.960	1628
703.283	1645
703.605	1675
703.928	1716
704.251	1761
704.573	1807
704.896	1848
705.218	1881
705.540	1908
705.863	1929
706.185	1946
706.507	1961
706.830	1975
707.152	1990
707.474	2006
707.796	2024
708.118	2043
708.440	2062
708.762	2077
709.084	2090
709.406	2097
709.728	2099
710.049	2094
710.371	2085
710.693	2071
711.014	2056
711.336	2041
711.658	2027
711.979	2015
712.301	2003
712.622	1991
712.943	1977
713.265	1960
713.586	1943
713.907	1926
714.228	1911
714.549	1899
714.870	1891
715.191	1887
715.512	1886
715.833	1883
716.154	1878
716.475	1870
716.796	1857
717.117	1840
717.437	1819
717.758	1796
718.078	1772
718.399	1749
718.719	1729
719.040	1711
719.360	1698
719.681	1688
720.001	1682
720.321	1678
720.642	1677
720.962	1678
721.282	1682
721.602	1687
721.922	1693
722.242	1702
722.562	1713
722.882	1726
723.202	1738
723.521	1749
723.841	1760
724.161	1772
724.481	1783
724.800	1795
725.120	1811
725.439	1830
725.759	1851
726.078	1876
726.398	1906
726.717	1942
727.036	1984
727.355	2028
727.675	2070
727.994	2111
728.313	2150
728.632	2183
728.951	2211
729.270	2235
729.589	2257
729.908	2285
730.226	2317
730.545	2352
730.864	2390
731.182	2430
731.501	2471
731.820	2510
732.138	2544
732.457	2574
732.775	2601
733.093	2623
733.412	2636
733.730	2639
734.048	2633
734.367	2620
734.685	2604
735.003	2586
735.321	2570
735.639	2557
735.957	2547
736.275	2537
736.593	2523
736.910	2501
737.228	2471
737.546	2433
737.863	2388
738.181	2339
738.499	2287
738.816	2236
739.134	2186
739.451	2135
739.768	2084
740.086	2035
740.403	1989
740.720	1947
741.038	1908
741.355	1870
741.672	1832
741.989	1793
742.306	1752
742.623	1711
742.940	1670
743.257	1633
743.573	1600
743.890	1574
744.207	1554
744.523	1540
744.840	1530
745.157	1525
745.473	1524
745.790	1529
746.106	1541
746.422	1559
746.739	1582
747.055	1608
747.371	1639
747.687	1670
748.004	1701
748.320	1727
748.636	1751
748.952	1774
749.268	1798
749.584	1821
749.899	1841
750.215	1862
750.531	1887
750.847	1913
751.162	1940
751.478	1966
751.793	1994
752.109	2023
752.424	2054
752.740	2085
753.055	2121
753.370	2165
753.686	2215
754.001	2269
754.316	2326
754.631	2385
754.946	2449
755.261	2517
755.576	2582
755.891	2645
756.206	2708
756.521	2773
756.836	2841
757.150	2906
757.465	2963
757.780	3011
758.094	3052
758.409	3083
758.723	3103
759.038	3112
759.352	3112
759.667	3103
759.981	3088
760.295	3073
760.609	3061
760.923	3054
761.238	3050
761.552	3047
761.866	3043
762.180	3037
762.493	3020
762.807	2989
763.121	2941
763.435	2881
763.749	2814
764.062	2752
764.376	2700
764.689	2665
765.003	2646
765.316	2644
765.630	2653
765.943	2668
766.257	2686
766.570	2700
766.883	2704
767.196	2698
767.509	2681
767.822	2656
768.135	2623
768.448	2587
768.761	2550
769.074	2518
769.387	2493
769.700	2477
770.013	2467
770.325	2459
770.638	2448
770.950	2427
771.263	2395
771.575	2350
771.888	2292
772.200	2225
772.513	2153
772.825	2077
773.137	1999
773.449	1922
773.761	1847
774.074	1777
774.386	1715
774.698	1664
775.010	1622
775.321	1591
775.633	1571
775.945	1560
776.257	1553
776.568	1552
776.880	1557
777.192	1568
777.503	1586
777.815	1608
778.126	1635
778.438	1668
778.749	1703
779.060	1737
779.372	1769
779.683	1801
779.994	1829
780.305	1851
780.616	1867
780.927	1877
781.238	1880
781.549	1876
781.860	1863
782.171	1847
782.481	1827
782.792	1808
783.103	1790
783.413	1769
783.724	1748
784.034	1726
784.345	1707
784.655	1689
784.966	1671
785.276	1653
785.586	1635
785.896	1616
786.207	1596
786.517	1576
786.827	1556
787.137	1537
787.447	1518
787.757	1501
788.066	1484
788.376	1468
788.686	1452
788.996	1436
789.305	1420
789.615	1407
789.925	1400
790.234	1398
790.544	1402
790.853	1409
791.162	1416
791.472	1423
791.781	1425
792.090	1423
792.399	1414
792.708	1401
793.017	1386
793.326	1372
793.635	1359
793.944	1346
794.253	1336
794.562	1328
794.871	1324
795.179	1320
795.488	1316
795.797	1309
796.105	1297
796.414	1278
796.722	1252
797.031	1218
797.339	1179
797.647	1134
797.956	1087
798.264	1043
798.572	1007
798.880	979
799.188	958
799.496	943
799.804	932
800.112	923
800.420	916
800.728	909
801.035	899
801.343	889
801.651	881
801.958	878
802.266	882
802.573	889
802.881	899
803.188	910
803.496	924
803.803	937
804.110	949
804.417	960
804.724	970
805.032	979
805.339	986
805.646	991
805.953	994
806.259	995
806.566	994
806.873	990
807.180	985
807.486	980
807.793	974
808.100	964
808.406	949
808.713	927
809.019	903
809.326	878
809.632	853
809.938	831
810.244	810
810.551	793
810.857	778
811.163	765
811.469	752
811.775	737
812.081	722
812.387	709
812.692	698
812.998	690
813.304	683
813.610	678
813.915	674
814.221	671
814.526	668
814.832	665
815.137	662
815.443	658
815.748	651
816.053	643
816.358	634
816.664	626
816.969	619
817.274	613
817.579	608
817.884	605
818.189	604
818.493	604
818.798	602
819.103	598
819.408	593
819.712	586
820.017	579
820.321	571
820.626	563
820.930	556
821.235	551
821.539	549
821.843	549
822.148	550
822.452	551
822.756	551
823.060	549
823.364	546
823.668	541
823.972	535
824.276	530
824.580	525
824.883	523
825.187	522
825.491	522
825.795	522
826.098	522
826.402	521
826.705	519
827.008	516
827.312	511
827.615	503
827.918	493
828.222	481
828.525	469
828.828	458
829.131	447
829.434	435
829.737	425
830.040	416
830.343	409
830.645	403
830.948	397
831.251	391
831.553	386
831.856	382
832.159	378
832.461	373
832.764	368
833.066	363
833.368	358
833.671	355
833.973	352
834.275	350
834.577	348
834.879	345
835.181	342
835.483	338
835.785	334
836.087	328
836.389	321
836.690	313
836.992	305
837.294	296
837.595	287
837.897	277
838.198	267
838.500	258
838.801	250
839.103	243
839.404	237
839.705	232
840.006	228
840.307	224
840.608	222
840.910	220
841.210	218
841.511	217
841.812	215
842.113	212
842.414	209
842.715	206
843.015	201
843.316	197
843.616	193
843.917	190
844.217	187
844.518	184
844.818	182
845.118	181
845.419	180
845.719	178
846.019	177
846.319	177
846.619	176
846.919	175
847.219	174
847.519	173
847.819	172
848.118	172
848.418	174
848.718	180
849.017	188
849.317	200
849.616	215
849.916	231
850.215	250
850.515	270
850.814	290
851.113	308
851.412	323
851.712	338
852.011	352
852.310	365
852.609	377
852.908	387
853.206	396
853.505	404
853.804	411
854.103	418
854.401	422
854.700	424
854.999	423
855.297	418
855.595	409
855.894	397
856.192	383
856.491	367
856.789	349
857.087	331
857.385	313
857.683	298
857.981	284
858.279	271
858.577	258
858.875	248
859.173	239
859.471	232
859.768	226
860.066	221
860.363	216
860.661	213
860.959	210
861.256	207
861.553	204
861.851	200
862.148	196
862.445	192
862.742	188
863.039	185
863.337	183
863.634	181
863.931	180
864.227	179
864.524	179
864.821	179
865.118	178
865.415	177
865.711	174
866.008	172
866.304	169
866.601	165
866.897	162
867.194	160
867.490	159
867.786	158
868.082	158
868.379	158
868.675	159
868.971	159
869.267	159
869.563	159
869.859	159
870.154	158
870.450	157
870.746	156
871.042	155
871.337	155
871.633	156
871.928	156
872.224	158
872.519	159
872.815	160
873.110	161
873.405	160
873.700	160
873.995	159
874.291	159
874.586	160
874.881	161
875.175	163
875.470	165
875.765	168
876.060	171
876.355	174
876.649	178
876.944	181
877.238	184
877.533	187
877.827	189
878.122	190
878.416	191
878.710	190
879.005	190
879.299	189
879.593	188
879.887	187
880.181	187
880.475	186
880.769	184
881.063	183
881.356	181
881.650	178
881.944	176
882.238	142
882.531	138
882.825	140
883.118	144
883.412	140
883.705	143
883.998	143
884.291	152
884.585	150
884.878	162
>>>>>>>>>> END of Data <<<<<<<<<<